timestamps,TP9,AF7,AF8,TP10,Right AUX
1742813955.905,24.414,-100.586,174.805,-65.430,0.000
1742813955.909,42.480,-118.164,-33.691,-30.762,0.000
1742813955.913,4.883,-126.953,-67.383,-41.504,0.000
1742813955.916,30.273,-125.977,134.766,41.992,0.000
1742813955.920,36.133,-90.820,158.203,3.418,0.000
1742813955.924,36.133,-55.664,40.039,-14.160,0.000
1742813955.928,17.578,-67.871,-97.656,-64.941,0.000
1742813955.932,-15.625,-63.477,108.398,-30.762,0.000
1742813955.936,14.160,-67.871,208.008,47.852,0.000
1742813955.940,49.805,-41.992,145.996,-26.367,0.000
1742813955.944,40.527,-28.809,120.117,-34.668,0.000
1742813955.948,60.547,-42.969,144.531,-4.883,0.000
1742813955.948,60.547,-42.969,144.531,-4.883,0.000
1742813955.952,31.738,-27.832,115.723,-24.414,0.000
1742813955.956,0.977,-25.879,61.035,-17.090,0.000
1742813955.959,-20.996,-31.738,121.094,-43.945,0.000
1742813955.963,-9.277,-13.672,162.598,-21.484,0.000
1742813955.967,27.832,-16.602,104.492,34.668,0.000
1742813955.971,60.059,-19.043,-17.578,8.789,0.000
1742813955.975,23.926,-15.625,66.895,-40.527,0.000
1742813955.979,-15.625,-18.555,236.816,-74.219,0.000
1742813955.983,15.625,-28.809,145.020,-46.387,0.000
1742813955.987,54.688,-9.277,-68.359,-6.348,0.000
1742813955.991,33.691,2.930,57.129,-16.602,0.000
1742813955.995,-28.320,-11.230,231.934,-98.633,0.000
1742813955.999,13.672,-15.625,135.254,-73.730,0.000
1742813956.002,67.383,-21.973,114.746,71.777,0.000
1742813956.006,57.129,-12.207,141.113,-32.715,0.000
1742813956.010,21.973,-29.297,69.336,-50.293,0.000
1742813956.014,10.742,-20.508,80.566,142.090,0.000
1742813956.018,42.969,1.465,127.930,81.055,0.000
1742813956.022,18.066,-1.465,155.273,-19.531,0.000
1742813956.026,28.320,-7.812,187.988,33.691,0.000
1742813956.030,28.809,-25.391,-27.832,36.133,0.000
1742813956.034,-1.465,-15.625,-67.871,-89.844,0.000
1742813956.038,12.695,-30.762,187.012,-100.586,0.000
1742813956.041,38.086,-28.809,168.457,-81.543,0.000
1742813956.045,46.387,-13.184,52.246,-59.570,0.000
1742813956.049,5.371,-46.875,61.035,54.199,0.000
1742813956.053,-13.184,-46.875,179.688,17.090,0.000
1742813956.057,19.531,-44.922,136.719,10.742,0.000
1742813956.061,13.672,-79.590,106.934,35.645,0.000
1742813956.065,34.668,-68.848,84.473,-91.797,0.000
1742813956.069,47.363,-81.543,107.910,-47.363,0.000
1742813956.073,5.371,-94.238,141.602,28.809,0.000
1742813956.077,-5.859,-62.988,-44.922,-34.180,0.000
1742813956.081,36.133,-69.336,43.457,7.324,0.000
1742813956.084,30.273,-85.938,231.934,24.902,0.000
1742813956.088,0.977,-85.449,35.645,-103.027,0.000
1742813956.092,-13.184,-126.465,-10.254,-79.590,0.000
1742813956.096,-28.809,-132.324,153.320,16.113,0.000
1742813956.100,-0.977,-78.613,182.617,7.324,0.000
1742813956.104,-12.695,-79.102,68.359,-30.273,0.000
1742813956.108,-29.297,-79.590,-83.496,-31.250,0.000
1742813956.112,1.953,-48.340,-46.875,-14.648,0.000
1742813956.116,22.461,-14.648,132.324,1.465,0.000
1742813956.120,20.020,19.043,87.402,-24.414,0.000
1742813956.124,19.531,44.922,39.551,-81.055,0.000
1742813956.127,47.852,40.039,199.219,0.000,0.000
1742813956.131,4.883,20.508,145.996,6.836,0.000
1742813956.135,-14.648,13.184,98.633,-79.590,0.000
1742813956.139,11.230,-4.395,171.387,8.789,0.000
1742813956.143,12.695,19.043,190.918,47.363,0.000
1742813956.147,6.348,31.250,98.145,-63.965,0.000
1742813956.151,-11.230,18.066,30.273,-47.363,0.000
1742813956.155,-0.488,34.180,76.660,-0.488,0.000
1742813956.159,-16.602,3.906,127.441,-30.273,0.000
1742813956.163,-16.113,-22.461,157.715,-52.246,0.000
1742813956.166,9.277,-12.695,8.789,-25.879,0.000
1742813956.170,5.859,18.555,44.922,-64.453,0.000
1742813956.174,-32.227,8.301,192.871,-69.824,0.000
1742813956.178,-30.762,-21.484,133.789,-42.480,0.000
1742813956.182,33.691,-3.418,138.184,-28.320,0.000
1742813956.186,-37.598,-8.789,147.461,-9.277,0.000
1742813956.190,-39.062,-31.250,145.020,-22.949,0.000
1742813956.194,23.438,8.789,90.820,-25.879,0.000
1742813956.198,-30.762,-7.324,66.406,-45.410,0.000
1742813956.202,-0.488,-34.668,147.461,15.625,0.000
1742813956.206,17.578,-19.043,146.484,38.574,0.000
1742813956.209,-10.254,-14.648,51.270,44.434,0.000
1742813956.213,-16.602,-29.785,-38.086,-3.418,0.000
1742813956.217,-15.137,-4.883,175.293,-96.191,0.000
1742813956.221,-5.371,-19.531,232.910,1.953,0.000
1742813956.225,0.000,-39.551,106.934,41.992,0.000
1742813956.229,-5.371,-26.855,102.051,0.000,0.000
1742813956.233,-1.953,-31.250,138.184,-65.430,0.000
1742813956.237,14.648,-35.645,148.438,-26.855,0.000
1742813956.241,-8.789,-14.160,122.070,21.973,0.000
1742813956.245,13.672,-48.340,148.438,-5.371,0.000
1742813956.249,36.133,-40.527,110.352,0.000,0.000
1742813956.252,2.441,-7.812,-16.602,-5.859,0.000
1742813956.256,5.859,-4.883,-72.754,45.410,0.000
1742813956.260,19.531,-14.648,74.219,-18.555,0.000
1742813956.264,6.348,-29.297,220.215,-10.742,0.000
1742813956.268,-0.977,-25.879,82.520,-78.613,0.000
1742813956.272,-9.766,-36.621,5.371,-91.309,0.000
1742813956.276,0.977,-29.297,148.438,89.355,0.000
1742813956.280,5.371,-35.156,214.355,73.242,0.000
1742813956.284,0.977,-32.715,101.074,-27.344,0.000
1742813956.288,22.949,-30.273,0.000,-4.883,0.000
1742813956.291,10.254,-44.922,42.969,3.418,0.000
1742813956.295,-1.465,-43.457,148.438,-38.086,0.000
1742813956.299,-15.137,-62.988,58.105,-39.551,0.000
1742813956.303,-6.348,-70.801,-47.363,-29.785,0.000
1742813956.307,20.996,-39.062,142.578,13.672,0.000
1742813956.311,5.371,-45.898,141.602,9.766,0.000
1742813956.315,-16.602,-36.133,53.223,-44.434,0.000
1742813956.319,-14.648,-30.762,115.234,-46.387,0.000
1742813956.323,2.441,-42.480,156.738,1.953,0.000
1742813956.327,0.000,-40.039,92.285,-21.484,0.000
1742813956.331,0.000,-41.504,-3.906,-2.441,0.000
1742813956.334,0.000,-45.410,73.242,16.602,0.000
1742813956.338,0.000,-47.852,176.758,-3.906,0.000
1742813956.342,0.000,-42.480,113.281,-5.371,0.000
1742813956.346,0.000,-44.922,-35.156,-3.418,0.000
1742813956.350,0.000,-56.641,69.824,-12.695,0.000
1742813956.354,0.000,-65.918,208.496,-23.438,0.000
1742813956.358,0.000,-69.336,129.395,-14.648,0.000
1742813956.362,0.000,-65.430,9.766,-18.066,0.000
1742813956.366,0.000,-62.012,82.031,-41.992,0.000
1742813956.370,0.000,-60.059,154.785,-50.781,0.000
1742813956.374,-24.414,-61.523,50.781,-39.062,0.000
1742813956.377,-20.508,-66.895,83.984,-27.344,0.000
1742813956.381,-18.555,-64.941,141.602,-24.414,0.000
1742813956.385,-19.531,-64.941,87.402,-33.203,0.000
1742813956.389,-27.344,-69.824,77.148,-42.480,0.000
1742813956.393,-35.645,-62.500,83.008,-38.574,0.000
1742813956.397,-28.320,-51.758,166.016,-26.855,0.000
1742813956.401,-32.227,-54.199,203.613,-34.180,0.000
1742813956.405,-43.945,-55.664,2.441,-46.387,0.000
1742813956.409,-46.875,-42.480,-68.848,-52.246,0.000
1742813956.413,-61.035,-38.086,180.664,-56.641,0.000
1742813956.416,-63.965,-45.898,172.363,-43.457,0.000
1742813956.420,-52.734,-40.527,104.980,-39.062,0.000
1742813956.424,-48.828,-46.387,143.555,-54.688,0.000
1742813956.428,-52.246,-51.758,121.094,-54.688,0.000
1742813956.432,-51.270,-39.551,88.867,-52.246,0.000
1742813956.436,-44.434,-37.598,93.750,-49.316,0.000
1742813956.440,-32.227,-34.668,110.840,-31.250,0.000
1742813956.444,-31.250,-30.762,133.789,-33.203,0.000
1742813956.448,-42.969,-30.273,130.859,-43.945,0.000
1742813956.452,-44.922,-32.227,-50.293,-34.668,0.000
1742813956.456,-46.387,-35.645,44.922,-24.414,0.000
1742813956.459,-46.387,-37.598,227.051,-15.625,0.000
1742813956.463,-32.227,-30.273,79.590,-28.809,0.000
1742813956.467,-33.691,-29.785,79.102,-41.504,0.000
1742813956.471,-43.945,-35.645,146.484,-39.551,0.000
1742813956.475,-43.945,-23.926,127.441,-49.316,0.000
1742813956.479,-35.156,-22.461,92.285,-39.551,0.000
1742813956.483,-34.180,-28.320,98.633,-23.438,0.000
1742813956.487,-41.016,-28.320,75.684,-37.109,0.000
1742813956.491,-41.504,-28.320,133.789,-43.457,0.000
1742813956.495,-44.922,-18.555,39.551,-43.457,0.000
1742813956.499,-44.922,-17.578,-52.734,-46.875,0.000
1742813956.502,-34.668,-24.902,187.500,-43.945,0.000
1742813956.506,-29.297,-26.855,170.898,-51.758,0.000
1742813956.510,-35.645,-34.180,-35.156,-82.520,0.000
1742813956.514,-51.758,-35.645,23.926,-54.688,0.000
1742813956.518,-43.945,-29.785,183.105,-21.973,0.000
1742813956.522,-20.020,-30.273,138.184,-21.484,0.000
1742813956.526,-32.227,-31.250,52.246,-24.902,0.000
1742813956.530,-51.758,-37.598,42.480,-38.086,0.000
1742813956.534,-50.293,-36.133,-74.219,-31.738,0.000
1742813956.538,-41.504,-37.598,26.855,-26.855,0.000
1742813956.542,-33.203,-48.828,-8.789,-10.254,0.000
1742813956.545,-33.203,-43.945,-12.207,-12.695,0.000
1742813956.549,-33.203,-37.109,171.875,-19.043,0.000
1742813956.553,-34.668,-38.086,69.336,-16.113,0.000
1742813956.557,-31.250,-36.621,93.750,-21.973,0.000
1742813956.561,-25.879,-41.504,166.992,-11.719,0.000
1742813956.565,-29.297,-55.176,157.227,-14.648,0.000
1742813956.569,-27.832,-55.664,66.406,-33.691,0.000
1742813956.573,-37.109,-54.199,-58.105,-35.645,0.000
1742813956.577,-47.852,-63.965,84.961,-13.184,0.000
1742813956.581,-40.527,-65.430,173.828,-16.113,0.000
1742813956.584,-21.484,-56.152,32.227,-20.508,0.000
1742813956.588,-27.344,-48.828,-25.879,-24.414,0.000
1742813956.592,-40.039,-58.105,167.480,-27.832,0.000
1742813956.596,-31.738,-64.941,187.500,-3.418,0.000
1742813956.600,-23.438,-56.641,99.609,1.465,0.000
1742813956.604,-23.926,-48.340,141.602,-14.648,0.000
1742813956.608,-34.668,-48.828,132.324,-15.137,0.000
1742813956.612,-36.133,-50.781,54.688,-19.043,0.000
1742813956.616,-35.156,-55.176,39.062,-36.133,0.000
1742813956.620,-35.645,-62.988,128.418,-28.320,0.000
1742813956.624,-38.086,-66.895,142.090,-34.180,0.000
1742813956.627,-36.621,-61.523,15.625,-40.039,0.000
1742813956.631,-35.156,-62.012,-215.820,-21.484,0.000
1742813956.635,-31.250,-62.500,-43.945,-5.859,0.000
1742813956.639,-19.531,-58.594,244.141,-0.977,0.000
1742813956.643,-21.484,-56.152,88.867,-2.930,0.000
1742813956.647,-30.273,-57.617,39.062,-7.812,0.000
1742813956.651,-32.715,-59.570,132.812,-13.672,0.000
1742813956.655,-39.062,-65.430,175.293,-16.602,0.000
1742813956.659,-36.133,-72.754,103.027,-13.184,0.000
1742813956.663,-26.367,-62.500,77.637,-7.324,0.000
1742813956.666,-30.762,-48.828,-0.977,-12.207,0.000
1742813956.670,-34.668,-45.410,-54.199,-34.180,0.000
1742813956.674,-36.133,-56.152,51.270,-47.363,0.000
1742813956.678,-38.574,-56.641,60.059,-38.086,0.000
1742813956.682,-25.879,-51.270,167.480,-39.551,0.000
1742813956.686,-23.926,-50.293,169.922,-54.199,0.000
1742813956.690,-42.480,-52.734,-44.434,-47.363,0.000
1742813956.694,-50.781,-43.457,-47.852,-37.598,0.000
1742813956.698,-41.504,-41.992,183.594,-40.527,0.000
1742813956.702,0.000,-46.875,0.000,-29.297,0.000
1742813956.706,0.000,-32.715,0.000,-27.344,0.000
1742813956.709,0.000,-30.273,0.000,-26.855,0.000
1742813956.713,0.000,-39.062,0.000,-49.805,0.000
1742813956.717,0.000,-38.086,0.000,-41.992,0.000
1742813956.721,0.000,-37.598,0.000,-11.719,0.000
1742813956.725,0.000,-35.156,0.000,-17.578,0.000
1742813956.729,0.000,-31.250,0.000,-23.926,0.000
1742813956.733,0.000,-35.156,0.000,-32.715,0.000
1742813956.737,0.000,-20.508,0.000,-20.020,0.000
1742813956.741,0.000,-17.090,0.000,-29.297,0.000
1742813956.745,0.000,-25.879,0.000,-36.133,0.000
1742813956.749,-24.414,-25.879,51.758,-20.996,0.000
1742813956.752,-33.203,-26.855,52.246,-7.324,0.000
1742813956.756,-33.691,-33.691,161.133,-10.254,0.000
1742813956.760,-25.391,-32.715,112.305,-17.578,0.000
1742813956.764,-21.973,-30.762,57.129,-6.836,0.000
1742813956.768,-19.043,-20.020,7.324,-3.418,0.000
1742813956.772,-20.020,-13.184,113.770,2.441,0.000
1742813956.776,-29.297,-26.367,209.473,-20.508,0.000
1742813956.780,-25.879,-29.785,49.805,-26.367,0.000
1742813956.784,-23.438,-31.250,-9.277,-44.922,0.000
1742813956.788,-27.832,-31.250,141.602,-41.992,0.000
1742813956.791,-36.621,-33.691,154.297,-37.598,0.000
1742813956.795,-32.715,-36.133,-73.242,-30.273,0.000
1742813956.799,-28.809,-38.574,-38.574,-15.137,0.000
1742813956.803,-34.668,-26.367,217.773,-16.602,0.000
1742813956.807,-46.875,-14.648,111.816,-44.922,0.000
1742813956.811,-53.223,-21.484,-57.129,-63.965,0.000
1742813956.815,-57.129,-29.785,-8.301,-30.762,0.000
1742813956.819,-56.641,-28.320,156.250,-34.180,0.000
1742813956.823,-60.059,-35.156,168.457,-54.199,0.000
1742813956.827,-57.617,-47.852,-89.844,-49.316,0.000
1742813956.831,-47.363,-45.898,-43.457,-32.715,0.000
1742813956.834,-48.340,-43.945,216.797,-23.438,0.000
1742813956.838,-40.527,-45.898,123.535,-16.602,0.000
1742813956.842,-24.414,-39.551,103.027,-8.789,0.000
1742813956.846,-16.602,-38.574,134.277,1.465,0.000
1742813956.850,-15.625,-37.109,103.516,0.977,0.000
1742813956.854,-9.766,-22.461,-28.809,-13.184,0.000
1742813956.858,-5.859,-24.902,-20.996,0.488,0.000
1742813956.862,0.488,-36.621,104.004,12.695,0.000
1742813956.866,7.812,-38.574,171.875,-6.348,0.000
1742813956.870,2.441,-36.621,9.766,-23.926,0.000
1742813956.874,1.953,-36.133,-137.695,-23.438,0.000
1742813956.877,8.301,-36.621,190.430,-22.949,0.000
1742813956.881,11.230,-38.086,170.898,-37.109,0.000
1742813956.885,-8.789,-30.273,-8.301,-29.785,0.000
1742813956.889,-30.762,-24.414,70.312,-18.555,0.000
1742813956.893,-34.180,-30.273,127.441,-19.531,0.000
1742813956.897,-32.715,-39.062,82.031,-10.742,0.000
1742813956.901,-27.344,-41.016,131.836,-13.184,0.000
1742813956.905,-31.250,-21.973,108.398,-28.809,0.000
1742813956.909,-43.457,-4.883,-82.031,-32.227,0.000
1742813956.913,-44.922,-6.348,38.086,-39.551,0.000
1742813956.917,-43.945,-10.254,14.648,-32.715,0.000
1742813956.920,-53.223,-5.859,35.645,-25.391,0.000
1742813956.924,-61.035,4.395,179.199,-49.316,0.000
1742813956.928,-61.523,0.977,63.965,-53.711,0.000
1742813956.932,-61.035,-4.395,59.082,-45.898,0.000
1742813956.936,-58.105,1.465,151.367,-50.293,0.000
1742813956.940,-49.316,9.766,189.453,-62.012,0.000
1742813956.944,-49.805,-3.906,61.523,-53.223,0.000
1742813956.948,-59.570,-19.531,-115.723,-39.062,0.000
1742813956.952,-57.617,-14.160,7.324,-49.316,0.000
1742813956.956,-49.805,-8.789,146.973,-45.898,0.000
1742813956.959,-44.434,-9.766,49.805,-28.320,0.000
1742813956.963,-31.738,-15.625,-14.648,-9.766,0.000
1742813956.967,-13.672,-15.137,157.715,-6.348,0.000
1742813956.971,-9.277,-13.184,166.504,-12.207,0.000
1742813956.975,-0.977,-7.812,72.266,-5.371,0.000
1742813956.979,9.766,-8.789,127.930,7.324,0.000
1742813956.979,9.766,-8.789,127.930,7.324,0.000
1742813956.983,5.859,-30.762,189.453,-6.348,0.000
1742813956.987,2.930,-45.898,83.496,-12.207,0.000
1742813956.991,-10.254,-58.594,-81.055,-15.137,0.000
1742813956.995,-24.414,-69.336,62.012,-25.391,0.000
1742813956.999,-20.508,-64.941,154.785,-19.531,0.000
1742813957.002,-15.137,-62.500,123.535,-15.625,0.000
1742813957.006,-17.578,-66.406,-86.914,-4.395,0.000
1742813957.010,-25.391,-63.965,-118.164,-15.625,0.000
1742813957.014,-24.414,-45.410,208.984,-37.109,0.000
1742813957.018,-24.414,-35.645,132.324,-16.113,0.000
1742813957.022,-25.879,-39.062,93.262,0.488,0.000
1742813957.026,-32.715,-47.363,138.672,-20.020,0.000
1742813957.030,-52.734,-55.176,104.492,-37.109,0.000
1742813957.034,-53.711,-48.340,55.176,-17.090,0.000
1742813957.038,-45.410,-44.922,56.641,-19.043,0.000
1742813957.041,-41.016,-45.898,127.441,-29.785,0.000
1742813957.045,-30.762,-39.551,137.695,-39.551,0.000
1742813957.049,-36.621,-31.738,1.953,-46.875,0.000
1742813957.053,-45.410,-41.992,-5.859,-52.246,0.000
1742813957.057,-39.551,-52.246,207.031,-38.574,0.000
1742813957.061,-47.363,-50.293,209.961,-34.180,0.000
1742813957.065,-53.223,-57.129,-18.555,-57.617,0.000
1742813957.069,-45.410,-56.152,-127.441,-44.434,0.000
1742813957.073,-44.434,-55.664,128.418,-35.156,0.000
1742813957.077,-37.598,-55.176,161.133,-35.645,0.000
1742813957.081,-21.484,-42.969,93.750,-33.691,0.000
1742813957.084,-13.672,-30.273,113.770,-36.133,0.000
1742813957.088,-15.625,-32.227,126.465,-27.344,0.000
1742813957.092,-25.879,-47.363,98.633,-29.297,0.000
1742813957.096,-24.902,-50.293,27.344,-25.391,0.000
1742813957.100,-14.648,-48.340,74.707,-27.344,0.000
1742813957.104,-14.648,-47.363,187.012,-43.945,0.000
1742813957.108,-28.320,-51.270,94.238,-32.227,0.000
1742813957.112,-24.414,-51.270,-106.445,-28.320,0.000
1742813957.116,-8.301,-35.645,62.012,-24.414,0.000
1742813957.120,-12.207,-28.320,205.078,-3.906,0.000
1742813957.124,0.000,-23.926,59.082,-14.160,0.000
1742813957.127,0.000,-33.203,17.578,-22.949,0.000
1742813957.131,0.000,-42.480,130.859,-21.973,0.000
1742813957.135,0.000,-45.898,138.184,-20.508,0.000
1742813957.139,0.000,-59.082,53.711,-37.598,0.000
1742813957.143,0.000,-61.523,20.996,-41.016,0.000
1742813957.147,0.000,-61.035,140.625,-27.344,0.000
1742813957.151,0.000,-65.430,183.594,-30.273,0.000
1742813957.155,0.000,-58.105,30.762,-13.184,0.000
1742813957.159,0.000,-59.082,30.762,-12.695,0.000
1742813957.163,0.000,-59.082,212.402,-21.484,0.000
1742813957.166,0.000,-55.664,128.418,-28.809,0.000
1742813957.170,-54.199,-57.129,2.441,-39.551,0.000
1742813957.174,-43.457,-41.504,81.055,-38.574,0.000
1742813957.178,-35.156,-28.320,155.762,-27.344,0.000
1742813957.182,-26.367,-34.668,82.520,-20.996,0.000
1742813957.186,-19.531,-24.414,52.246,-21.973,0.000
1742813957.190,-28.809,-17.090,51.270,-34.180,0.000
1742813957.194,-39.551,-34.180,127.441,-50.293,0.000
1742813957.198,-31.738,-33.691,187.500,-31.738,0.000
1742813957.202,-26.855,-43.457,-40.527,-36.133,0.000
1742813957.206,-31.738,-56.641,-7.812,-44.922,0.000
1742813957.209,-33.203,-41.016,204.590,-17.578,0.000
1742813957.213,-36.621,-36.133,89.844,-5.859,0.000
1742813957.217,-31.738,-37.598,88.867,-17.090,0.000
1742813957.221,-21.973,-24.902,177.734,-32.227,0.000
1742813957.225,-22.461,-18.066,148.438,-22.949,0.000
1742813957.229,-28.320,-20.020,-31.250,-4.395,0.000
1742813957.233,-24.902,-24.902,-53.223,-9.766,0.000
1742813957.237,-26.855,-26.367,122.559,-6.836,0.000
1742813957.241,-24.414,-29.297,160.156,-7.324,0.000
1742813957.245,-16.113,-41.992,16.602,-9.766,0.000
1742813957.249,-24.902,-34.668,-58.594,1.953,0.000
1742813957.252,-28.809,-15.625,147.949,-11.230,0.000
1742813957.256,-23.438,-3.906,178.223,-17.578,0.000
1742813957.260,-23.438,-1.953,78.613,-10.742,0.000
1742813957.264,-30.273,-3.906,97.656,0.000,0.000
1742813957.268,-41.504,-2.441,165.039,0.000,0.000
1742813957.272,-45.898,-2.930,104.980,0.000,0.000
1742813957.276,-44.434,-1.953,65.918,0.000,0.000
1742813957.280,-38.574,2.441,118.164,0.000,0.000
1742813957.284,-40.039,5.859,85.938,0.000,0.000
1742813957.288,-49.316,-4.395,76.660,0.000,0.000
1742813957.292,-49.316,-10.742,-87.402,0.000,0.000
1742813957.295,-37.598,-6.348,-7.324,0.000,0.000
1742813957.299,-31.250,-6.348,246.582,0.000,0.000
1742813957.303,-26.367,1.953,97.168,0.000,0.000
1742813957.307,-27.344,3.906,-55.176,0.000,0.000
1742813957.311,-33.203,-6.836,72.266,-31.738,0.000
1742813957.315,-36.133,-11.719,190.918,-47.852,0.000
1742813957.319,-29.785,-15.625,92.285,-51.270,0.000
1742813957.323,-10.742,-9.766,11.719,-44.922,0.000
1742813957.327,-3.906,-0.977,74.219,-41.992,0.000
1742813957.331,-10.742,1.953,-4.883,-43.945,0.000
1742813957.335,-16.113,-2.930,-85.938,-46.875,0.000
1742813957.338,-10.254,-10.742,1.465,-15.625,0.000
1742813957.342,-4.395,-11.230,169.922,-22.461,0.000
1742813957.346,-15.137,-16.113,165.039,-44.434,0.000
1742813957.350,-27.344,-19.531,-46.387,-40.527,0.000
1742813957.354,-34.668,-14.648,-45.898,-26.367,0.000
1742813957.358,-41.504,-12.695,0.000,-20.508,0.000
1742813957.362,-39.062,-15.137,0.000,-29.785,0.000
1742813957.366,-43.945,-22.949,0.000,-48.828,0.000
1742813957.370,-53.711,-20.996,0.000,-48.828,0.000
1742813957.374,-54.199,-17.090,0.000,-50.781,0.000
1742813957.377,-53.223,-14.160,0.000,-42.969,0.000
1742813957.381,-37.598,2.930,0.000,-34.668,0.000
1742813957.385,-30.762,1.465,0.000,-31.250,0.000
1742813957.389,-38.086,-15.137,0.000,-15.137,0.000
1742813957.393,-33.203,-15.625,0.000,-12.207,0.000
1742813957.397,-31.738,-14.160,0.000,-11.719,0.000
1742813957.401,-31.738,-16.602,0.000,-25.879,0.000
1742813957.405,-42.480,-23.438,141.113,-22.949,0.000
1742813957.409,-55.664,-28.809,1.465,-28.809,0.000
1742813957.413,-55.664,-21.484,-3.418,-56.641,0.000
1742813957.417,-51.270,-18.066,157.227,-17.090,0.000
1742813957.420,-39.062,-18.555,166.504,10.254,0.000
1742813957.424,-24.902,-15.625,48.340,-8.301,0.000
1742813957.428,-19.043,-3.906,-76.172,-24.902,0.000
1742813957.432,-19.043,-0.977,124.512,-18.555,0.000
1742813957.436,-14.648,-10.742,203.613,-10.254,0.000
1742813957.440,-6.836,-16.602,104.492,-1.953,0.000
1742813957.444,-3.906,-18.066,100.098,-9.766,0.000
1742813957.448,-13.672,-19.531,143.555,-9.766,0.000
1742813957.452,-18.555,-26.367,112.793,-22.949,0.000
1742813957.456,-15.625,-26.367,37.109,-20.020,0.000
1742813957.460,-12.207,-30.273,110.840,-6.348,0.000
1742813957.463,-16.602,-35.156,131.348,-32.715,0.000
1742813957.467,-29.785,-28.320,-29.297,-48.828,0.000
1742813957.471,-44.922,-32.227,-140.625,-38.086,0.000
1742813957.475,-53.711,-39.551,48.828,-47.852,0.000
1742813957.479,-55.664,-31.738,211.426,-51.758,0.000
1742813957.483,-51.270,-29.785,109.375,-34.668,0.000
1742813957.487,-53.223,-41.992,-27.344,-59.082,0.000
1742813957.491,-64.941,-37.109,73.242,-60.547,0.000
1742813957.495,-69.824,-30.273,197.266,-33.691,0.000
1742813957.499,-71.289,-36.621,103.027,-49.316,0.000
1742813957.503,-68.848,-43.945,69.824,-66.895,0.000
1742813957.506,-57.129,-41.504,134.277,-69.336,0.000
1742813957.510,-61.523,-34.668,-24.902,-82.031,0.000
1742813957.514,-61.523,-31.738,-87.402,-61.523,0.000
1742813957.518,-52.734,-41.016,56.641,-37.109,0.000
1742813957.522,-48.340,-44.434,130.859,-47.363,0.000
1742813957.526,-36.133,-33.691,117.676,-44.922,0.000
1742813957.530,-25.391,-28.809,-3.418,-50.781,0.000
1742813957.534,-28.320,-36.133,20.996,-35.645,0.000
1742813957.538,-29.785,-36.133,228.516,-9.766,0.000
1742813957.542,-21.973,-37.109,183.594,-15.625,0.000
1742813957.546,-15.625,-39.551,-7.812,-25.879,0.000
1742813957.549,-13.184,-38.574,-0.488,-24.902,0.000
1742813957.553,-16.113,-35.645,142.090,-30.762,0.000
1742813957.557,-14.160,-34.668,141.602,-57.617,0.000
1742813957.561,-7.324,-39.551,99.121,-34.180,0.000
1742813957.565,-8.301,-39.551,72.754,2.441,0.000
1742813957.569,-9.277,-34.668,83.496,-1.953,0.000
1742813957.573,-8.301,-25.879,128.418,-16.113,0.000
1742813957.577,-12.207,-28.809,-74.219,-17.090,0.000
1742813957.581,-17.578,-43.457,-19.043,-17.090,0.000
1742813957.585,-20.020,-48.340,211.914,-24.902,0.000
1742813957.588,-30.762,-43.945,53.223,-40.039,0.000
1742813957.592,-55.176,-44.922,42.969,-62.988,0.000
1742813957.596,-62.500,-53.223,157.715,-59.570,0.000
1742813957.600,-47.363,-43.945,171.387,-56.641,0.000
1742813957.604,-39.551,-35.156,47.363,-39.062,0.000
1742813957.608,-43.945,-41.016,-14.160,-42.480,0.000
1742813957.612,-41.992,-46.387,52.734,-41.016,0.000
1742813957.616,-43.945,-41.504,129.395,-40.527,0.000
1742813957.620,-44.922,-34.668,86.426,-40.527,0.000
1742813957.624,-48.828,-35.645,-8.789,-44.922,0.000
1742813957.627,-46.387,-37.598,145.996,-51.758,0.000
1742813957.631,-40.039,-37.109,149.902,-36.133,0.000
1742813957.635,-38.574,-29.785,69.824,-24.902,0.000
1742813957.639,-35.645,-24.902,121.582,-21.973,0.000
1742813957.643,-24.414,-23.926,166.016,-24.902,0.000
1742813957.647,-11.719,-23.438,94.727,-20.508,0.000
1742813957.651,-17.578,-19.531,-5.371,-13.672,0.000
1742813957.655,-22.461,-18.066,49.805,-15.137,0.000
1742813957.659,-16.602,-28.809,99.121,0.488,0.000
1742813957.663,-11.719,-29.785,155.273,15.625,0.000
1742813957.667,-16.602,-32.715,-69.336,-2.930,0.000
1742813957.670,-24.902,-39.551,-100.098,-12.695,0.000
1742813957.674,-17.090,-32.227,208.008,-11.719,0.000
1742813957.678,-3.418,-31.250,122.559,-19.531,0.000
1742813957.682,-3.418,-25.391,105.957,-20.020,0.000
1742813957.686,-8.301,-26.367,137.207,-18.066,0.000
1742813957.690,-17.578,-35.645,31.250,-27.832,0.000
1742813957.694,-20.508,-31.738,12.695,-26.367,0.000
1742813957.698,-13.184,-24.414,124.023,-39.062,0.000
1742813957.702,-12.207,-20.508,139.160,-27.832,0.000
1742813957.706,-19.043,-20.996,50.781,-15.137,0.000
1742813957.710,-20.996,-19.531,-33.203,-34.180,0.000
1742813957.713,-22.461,-15.625,-38.574,-37.598,0.000
1742813957.717,-24.414,-15.137,169.434,-38.086,0.000
1742813957.721,-7.812,-18.555,214.844,-34.668,0.000
1742813957.725,7.812,-17.578,-36.621,-32.715,0.000
1742813957.729,5.371,-10.742,-43.945,-32.227,0.000
1742813957.733,-6.836,-13.672,154.785,-29.297,0.000
1742813957.737,-12.695,-20.020,138.672,-19.531,0.000
1742813957.741,-20.508,-14.160,55.664,-5.371,0.000
1742813957.745,-30.273,-9.766,84.961,-20.996,0.000
1742813957.749,-38.086,-21.973,-3.906,-31.250,0.000
1742813957.752,-51.270,-31.250,-98.633,-30.273,0.000
1742813957.756,-49.316,-34.180,-100.098,-23.926,0.000
1742813957.760,-36.133,-28.809,-5.859,-23.438,0.000
1742813957.764,-20.996,-19.531,208.496,-23.926,0.000
1742813957.768,-21.973,-30.762,65.430,-25.391,0.000
1742813957.772,-26.367,-32.715,39.062,-30.762,0.000
1742813957.776,-23.926,-20.020,173.828,-24.902,0.000
1742813957.780,-20.996,-28.809,182.617,-14.648,0.000
1742813957.784,-17.578,-36.133,41.504,-19.531,0.000
1742813957.788,-21.484,-36.133,-40.527,-30.273,0.000
1742813957.792,-31.250,-44.434,80.078,-27.344,0.000
1742813957.795,-27.344,-48.828,149.902,-20.020,0.000
1742813957.799,-18.066,-47.852,72.754,-11.719,0.000
1742813957.803,-17.090,-50.293,-59.570,-22.461,0.000
1742813957.807,-29.785,-55.664,117.188,-36.621,0.000
1742813957.811,-41.992,-57.129,186.035,-32.715,0.000
1742813957.815,-35.156,-44.922,87.402,-21.484,0.000
1742813957.819,-25.391,-37.109,131.348,-27.832,0.000
1742813957.823,-19.043,-45.410,150.391,-36.621,0.000
1742813957.827,-21.973,-51.758,106.445,-46.387,0.000
1742813957.831,-22.949,-47.852,19.043,-39.551,0.000
1742813957.835,-31.250,-46.875,84.961,-40.527,0.000
1742813957.838,-35.645,-42.969,172.363,-40.527,0.000
1742813957.842,-26.855,-40.039,110.840,-23.926,0.000
1742813957.846,-24.902,-43.945,-62.012,-24.902,0.000
1742813957.850,-31.250,-41.016,0.000,-29.297,0.000
1742813957.854,-32.227,-39.551,185.547,-16.602,0.000
1742813957.858,-24.902,-39.062,105.957,-5.859,0.000
1742813957.862,-10.254,-30.762,-2.441,6.836,0.000
1742813957.866,-5.371,-25.391,75.684,1.953,0.000
1742813957.870,-14.648,-33.691,146.973,-11.719,0.000
1742813957.874,-15.137,-34.180,76.660,-25.879,0.000
1742813957.878,-18.555,-24.902,103.027,-17.578,0.000
1742813957.881,-17.090,-20.996,161.133,-0.488,0.000
1742813957.885,-18.066,-20.996,75.684,-9.766,0.000
1742813957.889,-22.949,-23.926,-16.113,-11.230,0.000
1742813957.893,-19.531,-17.578,-18.066,-12.207,0.000
1742813957.897,-8.789,-6.348,135.254,-19.531,0.000
1742813957.901,0.000,-1.953,232.422,-11.230,0.000
1742813957.905,-6.348,-2.441,-6.836,-8.301,0.000
1742813957.909,-23.438,-8.789,-157.227,-23.926,0.000
1742813957.913,-19.531,-6.348,137.207,-31.250,0.000
1742813957.917,1.953,-0.977,176.758,-20.996,0.000
1742813957.921,6.348,-8.301,105.957,-5.859,0.000
1742813957.924,6.836,2.930,111.816,-18.066,0.000
1742813957.928,-0.488,5.371,119.141,-23.438,0.000
1742813957.932,-1.953,-4.883,113.770,-25.879,0.000
1742813957.936,-1.953,-0.977,33.203,-24.414,0.000
1742813957.940,-7.812,-1.465,43.457,-3.906,0.000
1742813957.944,-6.348,-0.977,146.973,-8.301,0.000
1742813957.948,-3.906,-6.348,158.203,-30.273,0.000
1742813957.952,-4.883,-12.695,-103.516,-18.066,0.000
1742813957.956,-5.859,-6.348,-44.922,-13.672,0.000
1742813957.960,-2.930,-7.812,236.816,-23.926,0.000
1742813957.963,-6.836,-15.625,92.773,-13.672,0.000
1742813957.967,-4.395,-13.672,38.574,-12.207,0.000
1742813957.971,-3.906,-5.859,121.094,-19.531,0.000
1742813957.975,-3.418,-7.812,113.281,-8.789,0.000
1742813957.979,-7.812,-19.043,76.660,1.953,0.000
1742813957.983,-11.230,-23.438,61.035,-4.395,0.000
1742813957.987,-16.113,-18.066,93.262,4.883,0.000
1742813957.991,-33.203,-21.973,155.273,-18.555,0.000
1742813957.995,-31.250,-24.414,59.570,-54.688,0.000
1742813957.999,-24.902,-17.578,14.648,-60.547,0.000
1742813958.002,-19.531,-22.461,203.125,-24.414,0.000
1742813958.006,-14.648,-25.391,154.785,-17.578,0.000
1742813958.010,-26.367,-21.973,38.086,-20.996,0.000
1742813958.010,-26.367,-21.973,38.086,-20.996,0.000
1742813958.014,-30.762,-16.602,104.980,-5.859,0.000
1742813958.018,-21.484,-5.859,201.660,-9.766,0.000
1742813958.022,-22.461,-12.207,148.438,-10.742,0.000
1742813958.026,-29.785,-24.414,20.020,-27.832,0.000
1742813958.030,-35.156,-25.879,46.387,-42.969,0.000
1742813958.034,-37.109,-23.926,106.445,-29.297,0.000
1742813958.038,-28.320,-15.625,148.926,-17.578,0.000
1742813958.042,-22.949,-15.137,-26.367,-20.508,0.000
1742813958.045,-23.438,-22.949,-18.066,-32.227,0.000
1742813958.049,-24.414,-19.043,208.008,-32.227,0.000
1742813958.053,-35.645,-13.184,89.844,-17.090,0.000
1742813958.057,-39.551,-14.648,111.328,-13.672,0.000
1742813958.061,-35.645,-19.531,167.480,-4.883,0.000
1742813958.065,-30.273,-27.344,131.836,-14.160,0.000
1742813958.069,-28.320,-32.227,38.086,-28.809,0.000
1742813958.073,-22.461,-25.879,-21.484,-20.996,0.000
1742813958.077,-11.230,-12.207,116.699,-11.719,0.000
1742813958.081,-8.789,-12.695,172.852,-24.902,0.000
1742813958.085,-8.789,-19.043,43.945,-36.621,0.000
1742813958.088,-12.695,-19.043,-92.285,-22.461,0.000
1742813958.092,-12.207,-14.160,131.348,-8.301,0.000
1742813958.096,-17.090,-9.277,189.941,-21.973,0.000
1742813958.100,-14.160,-16.113,55.176,-22.461,0.000
1742813958.104,-13.184,-28.320,93.262,-35.645,0.000
1742813958.108,-20.508,-24.414,121.094,-36.621,0.000
1742813958.112,-26.367,-16.602,94.238,-14.160,0.000
1742813958.116,-25.879,-12.207,87.402,-8.789,0.000
1742813958.120,-24.902,-8.789,139.648,-14.648,0.000
1742813958.124,-29.785,-13.184,136.230,-28.809,0.000
1742813958.127,-30.273,-18.555,34.180,-31.738,0.000
1742813958.131,-32.715,-24.902,-172.363,-15.625,0.000
1742813958.135,-23.438,-24.414,-57.129,-12.695,0.000
1742813958.139,-18.555,-36.133,230.469,-22.949,0.000
1742813958.143,-14.648,-41.016,101.074,-15.137,0.000
1742813958.147,-4.883,-28.809,-67.383,-23.438,0.000
1742813958.151,-15.625,-32.227,24.902,-50.293,0.000
1742813958.155,-32.227,-38.574,164.062,-58.594,0.000
1742813958.159,-31.250,-41.992,80.078,-56.152,0.000
1742813958.163,-34.180,-33.203,53.711,-67.383,0.000
1742813958.167,-48.340,-32.227,29.785,-60.059,0.000
1742813958.170,-58.105,-44.922,17.578,-41.992,0.000
1742813958.174,-54.199,-46.875,63.477,-35.645,0.000
1742813958.178,-49.316,-46.387,-11.719,-23.438,0.000
1742813958.182,-42.969,-43.457,141.602,-35.156,0.000
1742813958.186,-33.691,-40.039,170.898,-48.340,0.000
1742813958.190,-27.832,-41.504,-13.184,-24.902,0.000
1742813958.194,-25.879,-36.133,44.922,-37.109,0.000
1742813958.198,-25.879,-35.645,187.988,-45.410,0.000
1742813958.202,-15.137,-40.527,102.051,-26.367,0.000
1742813958.206,-4.883,-30.762,-9.766,-36.621,0.000
1742813958.210,-20.996,-31.738,64.941,-23.926,0.000
1742813958.213,-28.320,-31.250,167.969,-11.719,0.000
1742813958.217,-23.926,-21.484,127.441,-16.602,0.000
1742813958.221,-20.508,-23.926,8.301,-10.254,0.000
1742813958.225,-9.766,-26.855,80.078,-7.324,0.000
1742813958.229,-12.207,-28.320,166.992,-12.695,0.000
1742813958.233,-23.438,-29.785,89.355,-11.230,0.000
1742813958.237,-16.602,-25.879,-15.137,-5.859,0.000
1742813958.241,-0.977,-26.855,107.910,-8.789,0.000
1742813958.245,1.953,-32.715,207.031,0.977,0.000
1742813958.249,-1.953,-24.902,63.965,10.254,0.000
1742813958.253,-6.836,-22.461,35.645,-0.977,0.000
1742813958.256,-19.043,-35.156,151.855,-27.344,0.000
1742813958.260,-23.438,-35.156,151.367,-23.438,0.000
1742813958.264,-16.602,-29.785,81.543,-10.742,0.000
1742813958.268,-17.090,-27.832,18.555,-17.090,0.000
1742813958.272,-28.809,-27.832,124.512,-16.113,0.000
1742813958.276,-28.809,-26.367,225.586,-29.785,0.000
1742813958.280,-19.043,-28.809,81.543,-24.902,0.000
1742813958.284,-17.578,-26.855,-27.832,-1.953,0.000
1742813958.288,-20.996,-16.113,148.438,-13.672,0.000
1742813958.292,-29.297,-16.113,149.902,-37.109,0.000
1742813958.296,-37.598,-25.391,85.449,-36.621,0.000
1742813958.299,-30.273,-29.785,136.719,-28.809,0.000
1742813958.303,-32.715,-29.785,152.344,-23.926,0.000
1742813958.307,-34.668,-36.133,84.961,-35.156,0.000
1742813958.311,-27.832,-40.527,-83.496,-22.461,0.000
1742813958.315,-27.832,-34.668,-19.531,-17.090,0.000
1742813958.319,-20.508,-22.949,150.391,-28.320,0.000
1742813958.323,-9.277,-21.973,143.066,-26.367,0.000
1742813958.327,-9.277,-21.973,-95.215,-28.320,0.000
1742813958.331,-17.090,-17.090,-61.523,-40.527,0.000
1742813958.335,-12.207,-16.602,235.352,-33.691,0.000
1742813958.338,6.348,-8.301,108.887,-9.766,0.000
1742813958.342,1.953,-15.625,57.617,-8.301,0.000
1742813958.346,-4.883,-24.902,121.582,-18.555,0.000
1742813958.350,0.000,-17.578,96.191,-24.414,0.000
1742813958.354,0.488,-9.277,49.805,-12.695,0.000
1742813958.358,-7.812,-6.348,35.156,-14.160,0.000
1742813958.362,-15.625,-10.254,86.914,-19.531,0.000
1742813958.366,-5.859,-3.906,110.352,-30.273,0.000
1742813958.370,-8.789,-0.977,29.297,-37.109,0.000
1742813958.374,-17.578,-8.789,-38.574,-24.414,0.000
1742813958.378,-6.348,-9.277,172.852,-17.090,0.000
1742813958.381,1.465,-18.555,199.707,-25.879,0.000
1742813958.385,-6.348,-25.391,25.391,-24.902,0.000
1742813958.389,-22.461,-13.672,48.828,-30.273,0.000
1742813958.393,-26.855,-4.395,171.875,-42.480,0.000
1742813958.397,-21.484,-15.625,146.484,-30.762,0.000
1742813958.401,-13.184,-23.438,64.941,-29.785,0.000
1742813958.405,-15.625,-21.973,51.758,-36.621,0.000
1742813958.409,-27.344,-20.996,-23.926,-38.086,0.000
1742813958.413,-33.203,-21.973,54.688,-31.738,0.000
1742813958.417,-31.250,-23.926,13.184,-38.086,0.000
1742813958.420,-25.879,-28.809,41.504,-40.039,0.000
1742813958.424,-13.184,-22.461,202.148,-32.715,0.000
1742813958.428,-10.254,-20.020,56.641,-27.344,0.000
1742813958.432,-15.625,-19.043,66.895,-17.578,0.000
1742813958.436,-15.625,-11.230,156.738,-22.949,0.000
1742813958.440,-14.160,-9.277,156.738,-27.344,0.000
1742813958.444,-13.672,-14.648,73.730,-7.812,0.000
1742813958.448,-12.207,-14.648,-94.727,-6.836,0.000
1742813958.452,-23.438,0.977,-1.465,-10.742,0.000
1742813958.456,-28.320,9.277,143.555,-3.906,0.000
1742813958.460,-20.508,-4.883,113.770,3.418,0.000
1742813958.463,-15.137,-6.836,8.301,-3.418,0.000
1742813958.467,-18.066,8.789,106.934,-30.273,0.000
1742813958.471,-29.785,24.902,169.922,-29.785,0.000
1742813958.475,-33.203,22.461,108.398,-19.531,0.000
1742813958.479,-27.832,11.719,125.000,-42.969,0.000
1742813958.483,-28.809,2.930,151.855,-74.707,0.000
1742813958.487,-26.367,1.953,59.570,-64.941,0.000
1742813958.491,-17.090,7.324,-14.648,-50.781,0.000
1742813958.495,-20.020,1.953,121.094,-52.734,0.000
1742813958.499,-23.926,-7.324,167.969,-45.410,0.000
1742813958.503,-19.531,-6.348,112.305,-23.926,0.000
1742813958.506,-30.762,-7.324,-102.539,-16.113,0.000
1742813958.510,-43.945,-9.766,-85.938,-25.391,0.000
1742813958.514,-47.852,-8.789,230.469,-27.344,0.000
1742813958.518,-42.969,-13.184,114.258,-31.250,0.000
1742813958.522,-26.855,-13.672,94.238,-31.250,0.000
1742813958.526,-26.367,-19.043,159.668,-31.738,0.000
1742813958.530,-26.367,-27.832,108.398,-38.086,0.000
1742813958.534,-24.414,-21.973,58.105,-24.414,0.000
1742813958.538,-22.949,-10.254,81.543,-26.855,0.000
1742813958.542,-8.789,-3.418,124.512,-32.227,0.000
1742813958.545,-9.766,-5.371,84.473,-17.578,0.000
1742813958.549,-22.461,-15.625,20.508,-20.508,0.000
1742813958.553,-32.715,-21.484,-4.395,-47.363,0.000
1742813958.557,-35.645,-16.113,164.062,-41.504,0.000
1742813958.561,-29.785,-15.137,172.852,-28.320,0.000
1742813958.565,-19.043,-19.043,29.785,-28.809,0.000
1742813958.569,-23.926,-18.066,-41.504,-30.273,0.000
1742813958.573,-29.785,-14.160,98.633,-37.598,0.000
1742813958.577,-28.809,-24.902,151.367,-38.086,0.000
1742813958.581,-24.902,-34.668,79.590,-52.734,0.000
1742813958.584,-24.414,-30.273,102.539,-51.758,0.000
1742813958.588,-29.785,-34.668,133.789,-58.105,0.000
1742813958.592,-26.367,-44.922,78.125,-55.664,0.000
1742813958.596,-22.949,-42.969,-38.574,-33.203,0.000
1742813958.600,-17.090,-38.086,59.570,-20.996,0.000
1742813958.604,-13.184,-37.109,194.824,-39.551,0.000
1742813958.608,-18.066,-38.086,95.215,-43.945,0.000
1742813958.612,-21.484,-29.297,-1.465,-44.434,0.000
1742813958.616,-24.902,-23.926,130.859,-47.852,0.000
1742813958.620,-24.902,-39.062,185.547,-30.273,0.000
1742813958.624,-23.926,-46.387,79.102,-28.320,0.000
1742813958.627,-25.391,-40.039,54.199,-24.902,0.000
1742813958.631,-29.785,-37.109,137.207,-27.832,0.000
1742813958.635,-26.855,-38.574,119.629,-36.133,0.000
1742813958.639,-24.414,-36.133,86.426,-34.668,0.000
1742813958.643,-19.531,-34.180,59.570,-19.531,0.000
1742813958.647,-7.812,-29.297,130.371,-22.949,0.000
1742813958.651,-9.766,-30.762,178.223,-18.066,0.000
1742813958.655,-23.438,-35.156,13.672,-16.113,0.000
1742813958.659,-29.297,-35.156,-1.465,-24.414,0.000
1742813958.663,-28.320,-32.227,178.711,-12.695,0.000
1742813958.666,-26.367,-40.527,122.559,-20.996,0.000
1742813958.670,-38.086,-58.594,-21.484,-36.621,0.000
1742813958.674,-41.992,-56.152,36.621,-31.738,0.000
1742813958.678,-30.762,-54.688,194.336,-28.809,0.000
1742813958.682,-30.762,-47.363,126.465,-28.809,0.000
1742813958.686,-27.344,-37.598,-66.895,-25.391,0.000
1742813958.690,-26.367,-40.039,-104.004,-25.391,0.000
1742813958.694,-37.109,-28.320,108.887,-33.691,0.000
1742813958.698,-35.156,-20.508,184.082,-39.062,0.000
1742813958.702,-31.250,-28.809,-74.707,-40.039,0.000
1742813958.706,-36.621,-33.691,-23.438,-47.363,0.000
1742813958.709,-49.316,-35.156,178.711,-65.430,0.000
1742813958.713,-55.664,-41.504,71.777,-61.523,0.000
1742813958.717,-47.852,-33.203,107.422,-43.945,0.000
1742813958.721,-33.691,-28.320,164.062,-34.180,0.000
1742813958.725,-30.273,-34.668,124.023,-30.273,0.000
1742813958.729,-34.668,-20.996,-55.664,-44.922,0.000
1742813958.733,-35.645,-11.230,-48.828,-46.875,0.000
1742813958.737,-30.762,-17.578,104.492,-14.160,0.000
1742813958.741,-21.484,-15.137,175.293,-8.789,0.000
1742813958.745,-20.020,-14.648,67.383,-25.391,0.000
1742813958.749,-24.902,-10.742,-106.934,-28.809,0.000
1742813958.752,-32.227,-12.207,140.137,-28.320,0.000
1742813958.756,-30.273,-18.066,212.402,-36.133,0.000
1742813958.760,-21.484,-5.859,66.895,-31.738,0.000
1742813958.764,-21.484,7.812,77.637,-23.438,0.000
1742813958.768,-26.367,19.531,96.191,-29.297,0.000
1742813958.772,-31.250,20.020,-35.156,-39.551,0.000
1742813958.776,-30.273,11.719,68.359,-29.297,0.000
1742813958.780,-28.320,6.836,185.547,-30.273,0.000
1742813958.784,-27.832,6.836,66.406,-41.504,0.000
1742813958.788,-23.926,8.301,39.551,-41.016,0.000
1742813958.792,-22.949,7.324,-105.469,-36.133,0.000
1742813958.795,-27.832,7.812,-34.180,-23.438,0.000
1742813958.799,-22.949,11.719,235.352,-27.344,0.000
1742813958.803,-13.184,11.230,81.055,-22.461,0.000
1742813958.807,-21.484,2.930,33.691,-40.527,0.000
1742813958.811,-32.227,-0.488,128.418,-40.039,0.000
1742813958.815,-26.367,-0.977,144.043,-19.043,0.000
1742813958.819,-25.391,9.277,104.980,-16.602,0.000
1742813958.823,-26.367,12.207,-8.789,-18.066,0.000
1742813958.827,-31.738,-5.371,45.410,-39.551,0.000
1742813958.831,-28.320,-7.812,137.695,-24.414,0.000
1742813958.834,-19.043,0.977,87.891,-5.859,0.000
1742813958.838,-15.137,3.418,50.781,-2.441,0.000
1742813958.842,-16.602,-1.465,178.711,-8.789,0.000
1742813958.846,-22.461,-5.859,156.738,-36.133,0.000
1742813958.850,-27.832,0.000,41.504,-23.438,0.000
1742813958.854,-40.039,-2.441,93.750,-12.207,0.000
1742813958.858,-41.992,-3.418,185.547,-14.648,0.000
1742813958.862,-29.785,2.441,166.992,-9.277,0.000
1742813958.866,-32.715,0.000,54.199,-27.344,0.000
1742813958.870,-42.969,0.488,63.965,-33.691,0.000
1742813958.874,-45.410,1.465,136.230,-30.762,0.000
1742813958.877,-41.504,-2.441,157.227,-31.250,0.000
1742813958.881,-29.785,-7.812,-44.922,-13.184,0.000
1742813958.885,-26.855,-4.395,-48.828,-8.301,0.000
1742813958.889,-34.668,4.395,210.938,-31.738,0.000
1742813958.893,-32.715,5.859,97.168,-46.387,0.000
1742813958.897,-27.344,-4.883,95.215,-32.227,0.000
1742813958.901,-28.320,-10.742,155.762,-20.020,0.000
1742813958.905,-25.391,-4.883,142.578,-26.367,0.000
1742813958.909,-34.180,-6.836,37.109,-29.785,0.000
1742813958.913,-45.410,-10.254,3.906,-34.180,0.000
1742813958.916,-47.852,-8.301,121.582,-43.945,0.000
1742813958.920,-41.992,-6.836,135.742,-55.176,0.000
1742813958.924,-35.156,-7.812,51.270,-48.340,0.000
1742813958.928,-32.227,-12.207,-62.012,-26.855,0.000
1742813958.932,-30.273,-12.207,124.512,-25.391,0.000
1742813958.936,-26.367,-12.207,194.336,-23.438,0.000
1742813958.940,-20.508,-12.207,48.340,-11.719,0.000
1742813958.944,-17.578,-13.672,71.289,-33.203,0.000
1742813958.948,-15.625,-17.578,137.207,-49.805,0.000
1742813958.952,-20.508,-13.184,103.516,-42.480,0.000
1742813958.956,-24.414,-13.672,61.035,-31.738,0.000
1742813958.960,-25.879,-14.648,99.121,-27.832,0.000
1742813958.963,-27.832,-17.090,152.344,-38.086,0.000
1742813958.967,-27.344,-16.602,86.426,-36.133,0.000
1742813958.971,-34.180,-17.090,-112.793,-29.297,0.000
1742813958.975,-30.273,-15.625,5.859,-13.184,0.000
1742813958.979,-17.090,-12.695,212.402,-18.555,0.000
1742813958.983,-16.113,-22.461,115.234,-30.273,0.000
1742813958.987,-19.043,-20.020,-36.621,-34.180,0.000
1742813958.991,-19.043,-15.625,19.043,-38.574,0.000
1742813958.995,-17.090,-17.578,130.371,-48.340,0.000
1742813958.999,-17.578,-25.879,109.375,-36.621,0.000
1742813959.002,-6.836,-24.902,139.160,-15.137,0.000
1742813959.006,-10.254,-16.602,149.902,-15.137,0.000
1742813959.010,-25.879,-20.508,-40.527,-26.367,0.000
1742813959.014,-25.879,-17.578,-54.688,-29.297,0.000
1742813959.018,-14.648,-21.484,113.770,-23.926,0.000
1742813959.022,-6.348,-21.484,155.762,-20.508,0.000
1742813959.026,-10.254,-18.555,187.988,-24.414,0.000
1742813959.030,-13.672,-27.832,-25.391,-24.902,0.000
1742813959.034,-8.789,-32.715,-104.980,-16.602,0.000
1742813959.038,-5.859,-29.297,195.801,-15.137,0.000
1742813959.041,-7.812,-27.344,183.105,-22.461,0.000
