timestamps,TP9,AF7,AF8,TP10,Right AUX
1742813898.370,0.000,7.324,-453.125,29.297,0.000
1742813898.374,0.000,7.324,-440.918,27.832,0.000
1742813898.378,0.000,2.441,-415.527,31.250,0.000
1742813898.381,0.000,0.488,-406.738,30.273,0.000
1742813898.385,0.000,5.371,-428.711,32.227,0.000
1742813898.389,0.000,4.395,-463.379,35.645,0.000
1742813898.393,0.000,-3.418,-475.586,18.066,0.000
1742813898.397,0.000,-1.465,-454.102,20.020,0.000
1742813898.401,0.000,4.395,-424.805,34.668,0.000
1742813898.405,0.000,-2.930,-426.270,24.902,0.000
1742813898.409,0.000,-1.465,-437.500,8.301,0.000
1742813898.413,0.000,0.488,-452.148,5.371,0.000
1742813898.417,-18.555,-4.883,-460.449,21.484,0.000
1742813898.421,-10.254,-3.906,-467.773,27.832,0.000
1742813898.424,-17.090,-6.348,-465.820,26.855,0.000
1742813898.428,-25.391,-15.137,-452.148,19.531,0.000
1742813898.432,-37.598,-15.625,-455.078,5.859,0.000
1742813898.436,-30.273,-10.254,-474.609,1.953,0.000
1742813898.440,-22.949,-7.812,-482.422,12.695,0.000
1742813898.444,-8.789,0.000,-492.188,19.043,0.000
1742813898.448,2.441,-0.977,-527.344,19.043,0.000
1742813898.452,-15.137,-14.648,-572.266,13.672,0.000
1742813898.456,-26.367,-16.602,-607.422,11.230,0.000
1742813898.460,-20.508,-12.695,-635.742,25.391,0.000
1742813898.464,-3.418,-12.207,-646.973,33.203,0.000
1742813898.467,3.906,-15.137,-654.297,23.926,0.000
1742813898.471,-15.137,-22.461,-670.410,14.648,0.000
1742813898.475,-33.203,-34.668,-672.363,2.930,0.000
1742813898.479,-34.180,-24.902,-650.879,-15.625,0.000
1742813898.483,-18.066,-7.324,-579.590,4.395,0.000
1742813898.487,-27.344,-7.812,-503.418,10.254,0.000
1742813898.491,-52.734,-38.086,-452.637,-7.812,0.000
1742813898.495,-62.012,-53.223,-374.023,-10.254,0.000
1742813898.499,-56.641,-24.414,-299.805,-17.578,0.000
1742813898.503,-58.105,-11.230,-269.531,-35.156,0.000
1742813898.506,-59.570,-15.625,-255.859,-31.738,0.000
1742813898.510,-71.777,-19.043,-258.789,-30.762,0.000
1742813898.514,-74.707,-17.090,-274.414,-35.156,0.000
1742813898.518,-68.848,-16.602,-273.926,-24.902,0.000
1742813898.522,-50.293,-33.691,-261.719,-14.648,0.000
1742813898.526,-30.762,-63.965,-257.324,-11.230,0.000
1742813898.530,-57.129,-35.645,-262.695,-21.973,0.000
1742813898.534,-78.125,3.418,-251.953,-36.621,0.000
1742813898.538,-72.754,6.348,-237.305,-26.855,0.000
1742813898.542,-58.105,-0.977,-224.609,-14.160,0.000
1742813898.546,-52.246,-13.672,-213.379,-36.621,0.000
1742813898.549,-48.828,-13.672,-209.961,-32.227,0.000
1742813898.553,-54.688,-15.625,-202.148,-39.062,0.000
1742813898.557,-65.430,-26.855,-201.172,-84.473,0.000
1742813898.561,-53.711,-29.297,-192.383,-44.922,0.000
1742813898.565,-35.645,-27.832,-192.383,-2.441,0.000
1742813898.569,-32.227,-29.785,-206.543,-26.367,0.000
1742813898.573,-43.945,-27.344,-203.125,-36.621,0.000
1742813898.577,-52.246,-28.809,-199.707,-12.695,0.000
1742813898.581,-41.992,-28.809,-199.707,-15.137,0.000
1742813898.585,-36.621,-25.879,-187.500,-67.383,0.000
1742813898.588,-35.156,-22.461,-163.574,-50.293,0.000
1742813898.592,-38.574,-14.160,-147.949,-0.977,0.000
1742813898.596,-43.945,-14.160,-150.391,4.395,0.000
1742813898.600,-40.039,-17.090,-154.297,0.000,0.000
1742813898.604,-31.738,-20.996,-139.160,-18.555,0.000
1742813898.608,-27.832,-19.531,-117.188,-19.531,0.000
1742813898.612,-38.086,-20.996,-96.680,-11.719,0.000
1742813898.616,-43.457,-24.414,-96.680,-36.133,0.000
1742813898.620,-38.086,-23.926,-111.328,-18.066,0.000
1742813898.624,-31.738,-25.391,-137.207,-4.395,0.000
1742813898.628,-18.066,-22.461,-176.270,-10.742,0.000
1742813898.631,-15.137,-21.484,-194.824,0.977,0.000
1742813898.635,-29.785,-22.949,-177.246,5.859,0.000
1742813898.639,-41.992,-25.879,-169.434,-31.250,0.000
1742813898.643,-36.133,-29.785,-158.203,-29.785,0.000
1742813898.647,-29.297,-33.203,-131.348,-34.180,0.000
1742813898.651,-33.203,-28.809,-21.484,-49.805,0.000
1742813898.655,-37.109,-23.926,196.777,19.531,0.000
1742813898.659,-51.270,-28.320,399.414,-7.324,0.000
1742813898.663,-39.551,-18.555,568.848,-39.062,0.000
1742813898.667,-10.742,-8.789,735.840,16.602,0.000
1742813898.670,-17.578,-12.695,840.820,-5.371,0.000
1742813898.674,-40.527,-23.926,893.066,-28.320,0.000
1742813898.678,-43.457,-26.367,921.387,-21.484,0.000
1742813898.682,-38.574,-24.414,887.695,-28.320,0.000
1742813898.686,-20.996,-18.555,807.617,16.602,0.000
1742813898.690,-17.090,-14.648,771.484,33.691,0.000
1742813898.694,-44.922,-13.672,751.953,-8.301,0.000
1742813898.698,-60.547,-10.254,689.453,-77.148,0.000
1742813898.702,-44.922,-6.348,614.258,-46.875,0.000
1742813898.706,-27.832,-7.812,549.805,11.230,0.000
1742813898.710,-52.734,-12.207,480.957,-103.027,0.000
1742813898.713,-68.848,-12.695,369.141,-108.398,0.000
1742813898.717,-54.688,-17.090,264.648,2.930,0.000
1742813898.721,-37.598,-20.508,215.332,7.812,0.000
1742813898.725,-28.320,-15.137,179.199,6.836,0.000
1742813898.729,-51.758,-20.508,148.926,-31.738,0.000
1742813898.733,-51.758,-16.602,125.488,-26.367,0.000
1742813898.737,-39.551,-8.789,94.727,36.133,0.000
1742813898.741,-58.105,-14.648,82.520,-52.734,0.000
1742813898.745,-33.691,-7.812,70.312,-71.289,0.000
1742813898.749,-18.066,-9.277,70.312,33.691,0.000
1742813898.753,-40.039,-14.160,77.637,57.129,0.000
1742813898.756,-53.711,-16.602,67.383,-11.230,0.000
1742813898.760,-41.504,-19.531,87.402,9.277,0.000
1742813898.764,-25.879,-17.090,91.309,-11.230,0.000
1742813898.768,-42.480,-25.879,91.309,-46.875,0.000
1742813898.772,-47.852,-23.926,111.816,-56.152,0.000
1742813898.776,-41.016,-4.883,149.902,-21.484,0.000
1742813898.780,-35.156,-2.930,194.336,11.230,0.000
1742813898.784,-33.203,-13.672,250.488,-47.363,0.000
1742813898.788,-10.742,-4.395,264.648,-42.969,0.000
1742813898.792,-22.461,-12.207,277.344,20.508,0.000
1742813898.796,-54.688,-24.902,274.414,-24.902,0.000
1742813898.799,-42.969,-18.555,280.273,-13.672,0.000
1742813898.803,-23.438,-14.160,335.938,-7.324,0.000
1742813898.807,-17.578,-14.160,420.410,29.297,0.000
1742813898.811,-48.828,-21.973,477.539,-81.543,0.000
1742813898.815,-54.688,-22.949,539.062,-65.918,0.000
1742813898.819,-24.902,-13.184,576.660,41.016,0.000
1742813898.823,-7.324,-14.648,566.406,27.832,0.000
1742813898.827,-8.789,-23.438,580.078,26.367,0.000
1742813898.831,-24.414,-27.832,606.445,-5.371,0.000
1742813898.835,-23.438,-18.066,591.797,-37.109,0.000
1742813898.839,-20.996,-17.578,582.031,29.297,0.000
1742813898.842,-26.855,-31.738,615.723,63.965,0.000
1742813898.846,-28.320,-36.133,666.992,-18.555,0.000
1742813898.850,-20.020,-32.227,669.922,-129.883,0.000
1742813898.854,-22.461,-32.715,654.785,-24.414,0.000
1742813898.858,-7.812,-25.879,641.602,10.742,0.000
1742813898.862,16.602,-20.996,636.230,22.461,0.000
1742813898.866,21.973,-23.438,604.004,35.645,0.000
1742813898.870,5.859,-20.508,538.086,-43.457,0.000
1742813898.874,7.324,-11.230,542.969,26.855,0.000
1742813898.877,16.113,-9.766,552.734,67.383,0.000
1742813898.881,7.812,-13.672,530.762,-5.859,0.000
1742813898.885,-15.625,-27.832,526.855,-85.449,0.000
1742813898.889,-28.809,-33.691,540.527,50.293,0.000
1742813898.893,-16.602,-28.809,541.016,60.059,0.000
1742813898.897,-19.531,-29.785,529.785,-39.551,0.000
1742813898.901,-19.531,-16.602,502.441,-29.297,0.000
1742813898.905,-9.766,-18.066,500.488,5.371,0.000
1742813898.909,4.883,-15.625,492.676,-32.715,0.000
1742813898.913,-14.648,-14.160,506.836,20.020,0.000
1742813898.917,-36.621,-22.461,497.559,15.137,0.000
1742813898.920,-43.945,-14.160,471.680,-3.418,0.000
1742813898.924,-37.598,-17.578,471.680,55.176,0.000
1742813898.928,-33.691,-18.555,448.242,-31.250,0.000
1742813898.932,-33.203,-8.789,432.129,-96.680,0.000
1742813898.936,-49.805,-19.531,444.824,-20.508,0.000
1742813898.940,-63.965,-30.273,410.645,-108.398,0.000
1742813898.944,-64.453,-28.320,383.301,-98.633,0.000
1742813898.948,-88.867,-42.480,380.371,-46.387,0.000
1742813898.952,-62.500,-27.832,313.965,-49.316,0.000
1742813898.956,-55.664,-16.602,266.602,-52.734,0.000
1742813898.960,-65.918,-37.598,274.414,4.395,0.000
1742813898.963,-48.828,-34.668,230.957,-19.043,0.000
1742813898.967,-29.297,-14.160,165.527,-104.980,0.000
1742813898.971,-52.734,-25.391,181.641,70.801,0.000
1742813898.975,-58.105,-36.133,178.223,80.078,0.000
1742813898.979,-39.551,-21.973,117.676,-118.164,0.000
1742813898.983,-44.434,-22.949,92.285,-58.105,0.000
1742813898.987,-51.270,-28.809,79.102,6.348,0.000
1742813898.991,-25.879,-22.461,29.785,36.133,0.000
1742813898.995,-32.715,-20.020,7.812,43.945,0.000
1742813898.999,-61.523,-24.414,-29.297,-59.570,0.000
1742813899.002,-58.105,-27.344,-80.566,-147.949,0.000
1742813899.006,-37.109,-18.066,-118.652,-41.504,0.000
1742813899.010,-83.984,-28.320,-157.715,-150.391,0.000
1742813899.014,-108.398,-35.156,-238.770,-308.594,0.000
1742813899.018,-46.387,-2.930,-307.617,7.812,0.000
1742813899.022,-38.574,-20.020,-303.223,44.922,0.000
1742813899.026,-39.062,-26.367,-337.891,-81.543,0.000
1742813899.030,-34.668,-27.832,-358.887,-9.766,0.000
1742813899.034,-35.645,-19.531,-382.324,40.039,0.000
1742813899.038,-28.809,-16.602,-399.902,0.977,0.000
1742813899.042,-8.789,-13.672,-407.227,-51.270,0.000
1742813899.045,-24.902,-20.996,-418.945,-28.809,0.000
1742813899.049,-45.410,-28.809,-416.504,-16.602,0.000
1742813899.053,-50.293,-26.855,-363.770,-54.688,0.000
1742813899.057,-51.758,-36.621,-328.125,-52.734,0.000
1742813899.061,-29.785,-29.785,-335.938,-35.645,0.000
1742813899.065,-26.367,-31.250,-327.637,-64.453,0.000
1742813899.069,-17.090,-17.578,-318.359,-20.020,0.000
1742813899.073,-13.672,-19.043,-284.180,-5.859,0.000
1742813899.077,-15.137,-23.438,-279.785,-63.477,0.000
1742813899.081,5.859,-2.930,-313.477,-25.391,0.000
1742813899.084,19.531,-14.160,-257.324,10.742,0.000
1742813899.088,21.973,-26.367,-211.914,35.156,0.000
1742813899.092,13.184,-31.250,-230.957,-10.254,0.000
1742813899.096,-0.977,-34.668,-223.145,-3.418,0.000
1742813899.100,3.418,-45.898,-155.762,-16.602,0.000
1742813899.104,30.273,-25.391,-118.164,68.848,0.000
1742813899.108,13.672,-10.742,-104.492,42.969,0.000
1742813899.112,-15.625,-20.996,-55.176,-25.391,0.000
1742813899.116,-29.297,1.953,-39.062,17.090,0.000
1742813899.120,0.000,-4.883,-17.578,-49.805,0.000
1742813899.124,0.000,-10.742,16.602,-29.297,0.000
1742813899.127,0.000,-17.090,52.246,84.961,0.000
1742813899.131,0.000,-21.484,52.734,-16.602,0.000
1742813899.135,0.000,-35.156,69.336,-140.625,0.000
1742813899.139,0.000,-33.203,100.586,62.012,0.000
1742813899.143,0.000,-25.391,119.629,51.270,0.000
1742813899.147,0.000,-26.367,103.027,-91.797,0.000
1742813899.151,0.000,-26.367,109.863,-38.086,0.000
1742813899.155,0.000,-39.062,97.656,-115.234,0.000
1742813899.159,0.000,-32.227,105.957,-43.457,0.000
1742813899.163,0.000,-20.508,97.168,-30.273,0.000
1742813899.167,-59.570,-10.742,59.570,-153.809,0.000
1742813899.170,-52.734,-45.410,88.867,-31.250,0.000
1742813899.174,-55.176,-64.941,111.328,-24.414,0.000
1742813899.178,-51.758,-20.508,82.031,-44.434,0.000
1742813899.182,-52.246,-15.625,105.957,-8.789,0.000
1742813899.186,1.465,-36.621,94.238,82.031,0.000
1742813899.190,-16.113,-24.414,93.750,69.336,0.000
1742813899.194,-67.383,-36.133,116.211,-100.098,0.000
1742813899.198,-38.574,-30.762,94.238,-72.266,0.000
1742813899.202,-30.273,-8.301,104.492,57.617,0.000
1742813899.206,-30.762,-27.832,113.281,-15.625,0.000
1742813899.209,-22.949,-29.297,92.285,-70.312,0.000
1742813899.213,-45.410,-23.926,97.168,1.465,0.000
1742813899.217,-78.125,-44.434,97.168,-33.691,0.000
1742813899.221,-79.102,-43.945,65.918,-164.551,0.000
1742813899.225,-59.082,-12.207,29.297,-190.430,0.000
1742813899.229,-4.395,-15.137,30.273,23.438,0.000
1742813899.233,20.020,-34.668,67.871,101.562,0.000
1742813899.237,1.953,-23.438,61.523,-23.926,0.000
1742813899.241,12.695,-17.578,40.039,-30.762,0.000
1742813899.245,1.465,-32.227,73.242,10.742,0.000
1742813899.249,-23.438,-8.301,69.824,-24.414,0.000
1742813899.252,-31.250,-14.160,35.645,-85.938,0.000
1742813899.256,-35.156,-33.691,75.195,-58.105,0.000
1742813899.260,-11.719,-26.855,131.348,-4.883,0.000
1742813899.264,-7.812,-34.668,169.434,10.742,0.000
1742813899.268,-52.734,-35.156,158.691,-69.824,0.000
1742813899.272,-44.434,-40.039,141.113,-108.398,0.000
1742813899.276,-4.883,-24.902,176.758,-3.418,0.000
1742813899.280,4.883,-1.953,174.316,21.484,0.000
1742813899.284,10.742,-7.324,136.719,-64.941,0.000
1742813899.288,-52.246,-38.574,151.367,11.719,0.000
1742813899.292,-10.742,-34.180,131.836,49.805,0.000
1742813899.295,42.969,-12.207,132.324,-16.113,0.000
1742813899.299,6.348,-27.344,136.230,-63.965,0.000
1742813899.303,-10.742,-29.785,98.633,-53.223,0.000
1742813899.307,36.133,-33.203,110.840,18.066,0.000
1742813899.311,71.777,-23.438,109.863,25.391,0.000
1742813899.315,38.574,-19.043,73.730,-24.414,0.000
1742813899.319,52.734,-23.438,83.984,62.012,0.000
1742813899.323,31.250,-11.230,89.844,3.418,0.000
1742813899.327,7.324,-26.855,70.312,-60.547,0.000
1742813899.331,4.883,-25.879,46.875,19.043,0.000
1742813899.334,44.922,-23.438,37.598,0.488,0.000
1742813899.338,54.199,-18.555,59.570,39.551,0.000
1742813899.342,42.969,-16.113,67.383,84.473,0.000
1742813899.346,50.293,-21.973,64.453,53.711,0.000
1742813899.350,14.160,-14.160,42.480,7.324,0.000
1742813899.354,-4.395,-12.207,0.000,-15.137,0.000
1742813899.358,1.465,-18.555,0.000,-29.297,0.000
1742813899.362,1.953,-41.992,0.000,28.320,0.000
1742813899.366,5.859,-24.902,0.000,-23.438,0.000
1742813899.370,24.902,-13.672,0.000,-14.648,0.000
1742813899.374,23.926,-25.879,0.000,49.316,0.000
1742813899.377,17.578,-22.461,0.000,61.035,0.000
1742813899.381,10.742,-22.949,0.000,32.227,0.000
1742813899.385,-0.488,-24.902,0.000,-102.539,0.000
1742813899.389,2.441,-11.230,0.000,-59.082,0.000
1742813899.393,-10.742,-13.184,0.000,-14.648,0.000
1742813899.397,-15.625,-27.344,0.000,-29.297,0.000
1742813899.401,-34.668,-22.949,-72.266,-73.730,0.000
1742813899.405,-42.969,-22.461,-98.145,-76.660,0.000
1742813899.409,-9.277,-41.992,-92.285,41.992,0.000
1742813899.413,-1.953,-22.949,-89.844,-22.461,0.000
1742813899.416,-43.945,-17.578,-83.008,-120.605,0.000
1742813899.420,-43.457,-28.809,-93.262,-49.805,0.000
1742813899.424,-19.043,-19.531,-105.957,-6.348,0.000
1742813899.428,-4.395,-14.648,-104.980,-101.074,0.000
1742813899.432,-52.734,-24.414,-74.707,-87.402,0.000
1742813899.436,-80.078,-43.945,-65.430,-146.973,0.000
1742813899.440,-29.297,-29.297,-82.031,-78.613,0.000
1742813899.444,-20.508,-21.973,-57.129,39.551,0.000
1742813899.448,-12.695,-30.762,-72.754,18.555,0.000
1742813899.452,-11.230,-34.668,-98.145,2.930,0.000
1742813899.456,-38.086,-19.043,-96.191,-41.504,0.000
1742813899.459,-0.488,-31.250,-104.004,-46.875,0.000
1742813899.463,-4.395,-52.734,-98.145,-45.898,0.000
1742813899.467,-8.789,-30.762,-107.910,-9.766,0.000
1742813899.471,15.137,-12.695,-131.836,-1.465,0.000
1742813899.475,-34.668,-21.484,-116.699,-112.305,0.000
1742813899.479,-28.320,-38.086,-80.566,-44.434,0.000
1742813899.483,-0.977,-33.203,-92.285,35.156,0.000
1742813899.487,-16.602,-25.879,-123.047,-84.473,0.000
1742813899.491,-14.160,-31.250,-114.746,-34.668,0.000
1742813899.495,-0.488,-46.875,-81.055,53.711,0.000
1742813899.499,-24.902,-48.340,-83.496,11.719,0.000
1742813899.502,-12.207,-34.180,-117.188,-83.008,0.000
1742813899.506,-3.418,-8.789,-134.277,-81.543,0.000
1742813899.510,-30.273,-29.297,-95.215,-20.020,0.000
1742813899.514,-0.977,-27.344,-99.609,-31.738,0.000
1742813899.518,1.953,-21.484,-93.750,14.160,0.000
1742813899.522,-1.465,-31.250,-70.801,17.090,0.000
1742813899.526,6.836,-27.832,-67.383,-17.578,0.000
1742813899.530,-9.766,-30.273,-64.453,-18.066,0.000
1742813899.534,-52.734,-29.785,-37.598,-37.598,0.000
1742813899.538,-34.668,-47.852,-39.062,-44.922,0.000
1742813899.542,32.715,-56.641,-40.527,-54.199,0.000
1742813899.545,0.488,-6.348,-65.918,-34.668,0.000
1742813899.549,-43.457,-16.113,-54.199,43.945,0.000
1742813899.553,-9.277,-42.480,-50.293,8.301,0.000
1742813899.557,-34.668,-14.648,-67.871,0.488,0.000
1742813899.561,-17.578,-27.344,-63.965,-22.461,0.000
1742813899.565,12.207,-29.785,-59.082,-76.660,0.000
1742813899.569,-9.766,-21.484,-43.945,21.973,0.000
1742813899.573,-12.695,-33.691,-66.406,-76.660,0.000
1742813899.577,-18.066,-15.137,-56.152,7.324,0.000
1742813899.581,-16.113,-19.043,-18.066,44.434,0.000
1742813899.584,-9.277,-22.949,-34.180,-96.680,0.000
1742813899.588,-50.293,-20.996,-40.527,-57.129,0.000
1742813899.592,-1.953,-32.715,-22.461,15.137,0.000
1742813899.596,8.301,-24.414,-26.367,-39.551,0.000
1742813899.600,-15.137,-18.555,-25.391,-10.742,0.000
1742813899.604,-8.789,-23.438,-28.320,-48.340,0.000
1742813899.608,-61.523,-22.949,-46.875,-83.008,0.000
1742813899.612,-49.316,-12.207,-68.359,-35.156,0.000
1742813899.616,-29.297,-23.926,-42.480,6.348,0.000
1742813899.620,-42.969,-25.879,-46.387,-46.387,0.000
1742813899.624,-16.602,-11.719,-56.641,-42.969,0.000
1742813899.627,-18.066,-22.949,-45.898,1.465,0.000
1742813899.631,-83.496,-31.738,-62.012,-172.852,0.000
1742813899.635,-114.258,-25.391,-69.824,-166.992,0.000
1742813899.639,-56.641,-32.715,-64.941,4.883,0.000
1742813899.643,-10.742,-23.438,-70.801,11.230,0.000
1742813899.647,-15.137,-41.504,-65.918,18.555,0.000
1742813899.651,-41.504,-30.273,-69.824,-27.832,0.000
1742813899.655,-35.645,-21.973,-67.383,-63.965,0.000
1742813899.659,-38.574,-33.203,-77.148,-22.949,0.000
1742813899.663,-37.598,-34.180,-81.543,17.578,0.000
1742813899.667,-39.062,-33.691,-104.980,-120.117,0.000
1742813899.670,-49.316,-26.855,-90.332,-152.832,0.000
1742813899.674,-36.621,-44.434,-81.055,-62.988,0.000
1742813899.678,-51.758,-30.273,-123.535,-36.133,0.000
1742813899.682,-60.059,-19.531,-131.836,-56.152,0.000
1742813899.686,7.812,-40.039,-113.770,-20.996,0.000
1742813899.690,-25.391,-24.414,-141.113,-19.043,0.000
1742813899.694,-67.383,-4.395,-170.410,-43.457,0.000
1742813899.698,1.953,-7.812,-183.105,-24.414,0.000
1742813899.702,46.387,-42.969,-190.918,-26.367,0.000
1742813899.706,-13.184,-43.457,-213.867,-48.340,0.000
1742813899.709,-19.531,-23.438,-225.098,32.227,0.000
1742813899.713,29.297,-17.090,-234.863,30.762,0.000
1742813899.717,-3.418,-29.785,-233.887,-39.551,0.000
1742813899.721,-54.688,-18.555,-223.633,6.348,0.000
1742813899.725,-46.387,0.488,-235.840,-26.855,0.000
1742813899.729,-48.340,-35.156,-222.168,-114.258,0.000
1742813899.733,-75.195,-10.254,-215.820,8.301,0.000
1742813899.737,-47.363,-5.371,-222.656,-16.602,0.000
1742813899.741,-21.973,-21.973,-196.289,11.719,0.000
1742813899.745,-67.383,-14.160,-219.238,-33.203,0.000
1742813899.749,-44.434,-31.250,-225.098,-63.477,0.000
1742813899.752,40.039,-29.297,-171.875,101.074,0.000
1742813899.756,17.578,-23.438,-159.180,1.465,0.000
1742813899.760,-24.902,-2.441,-151.855,-102.539,0.000
1742813899.764,-44.922,10.742,-145.508,-57.617,0.000
1742813899.768,25.879,-44.922,-112.793,67.383,0.000
1742813899.772,70.801,-37.598,-77.148,168.945,0.000
1742813899.776,33.203,-32.227,-72.266,109.863,0.000
1742813899.780,0.977,-41.016,-79.102,8.301,0.000
1742813899.784,-49.805,-21.484,-103.027,-156.738,0.000
1742813899.788,-25.391,-22.949,-89.844,-116.211,0.000
1742813899.792,-14.648,-35.645,-77.637,-57.617,0.000
1742813899.795,-70.801,-27.344,-107.910,-202.148,0.000
1742813899.799,10.254,-21.973,-110.840,-18.555,0.000
1742813899.803,38.086,-22.949,-93.750,53.711,0.000
1742813899.807,14.648,-32.227,-69.336,56.641,0.000
1742813899.811,-29.785,-41.504,-58.594,20.020,0.000
1742813899.815,-43.457,-37.598,-66.895,-1.953,0.000
1742813899.819,-2.930,-36.621,-65.430,58.105,0.000
1742813899.823,-3.418,-38.086,-76.660,30.762,0.000
1742813899.827,-17.090,-24.902,-93.262,-29.785,0.000
1742813899.831,-42.969,-12.207,-96.680,-59.082,0.000
1742813899.834,-42.480,-13.672,-82.520,7.324,0.000
1742813899.838,-29.297,-36.621,-73.242,0.977,0.000
1742813899.842,-20.508,-27.832,-75.195,-31.250,0.000
1742813899.846,-25.879,-24.414,-73.242,-6.836,0.000
1742813899.850,-47.852,-38.574,-50.781,-9.277,0.000
1742813899.854,-20.508,-37.109,-54.199,-72.754,0.000
1742813899.858,-47.852,-34.180,-85.938,-92.285,0.000
1742813899.862,-26.855,-31.738,-69.336,-36.133,0.000
1742813899.866,22.461,-31.738,-32.227,15.625,0.000
1742813899.870,-0.977,-38.086,-40.039,6.348,0.000
1742813899.874,-35.645,-39.062,-46.387,-30.273,0.000
1742813899.877,-27.832,-37.109,-22.949,-23.926,0.000
1742813899.881,-11.719,-26.855,-19.531,-27.344,0.000
1742813899.885,-29.297,-25.879,-32.227,-45.898,0.000
1742813899.889,-39.062,-27.832,-39.551,-51.270,0.000
1742813899.893,-42.480,-24.414,-31.250,-52.246,0.000
1742813899.897,-44.922,-26.367,-32.715,-53.223,0.000
1742813899.901,-34.668,-29.785,-45.898,-50.293,0.000
1742813899.905,-24.414,-31.250,-59.082,-25.879,0.000
1742813899.909,-21.484,-31.738,-45.898,-18.066,0.000
1742813899.913,-27.832,-31.738,-42.969,-38.086,0.000
1742813899.917,-36.133,-28.320,-58.594,-59.082,0.000
1742813899.920,-34.180,-26.367,-59.570,-44.434,0.000
1742813899.924,-15.137,-26.367,-63.477,-24.414,0.000
1742813899.928,-4.395,-26.855,-83.984,-5.859,0.000
1742813899.932,-22.461,-29.297,-92.773,-12.695,0.000
1742813899.936,-26.855,-25.879,-87.402,-26.855,0.000
1742813899.940,-15.625,-24.414,-89.844,-20.020,0.000
1742813899.944,-8.301,-23.926,-98.633,-4.883,0.000
1742813899.948,0.000,-22.461,-120.117,33.203,0.000
1742813899.952,-7.812,-16.602,-124.023,28.320,0.000
1742813899.956,-28.809,-15.625,-109.375,-26.367,0.000
1742813899.959,-24.414,-14.160,-132.324,-32.227,0.000
1742813899.963,-12.695,-15.625,-175.293,5.859,0.000
1742813899.967,-20.020,-23.926,-193.359,-31.738,0.000
1742813899.971,-29.297,-23.438,-193.848,-33.691,0.000
1742813899.975,-35.645,-20.020,-187.500,2.441,0.000
1742813899.979,-48.340,-28.320,-178.223,2.930,0.000
1742813899.983,-46.387,-25.391,-171.875,4.883,0.000
1742813899.987,-44.922,-22.949,-163.574,6.348,0.000
1742813899.991,-51.758,-20.996,-169.434,5.859,0.000
1742813899.995,-56.641,-21.973,-188.477,-21.484,0.000
1742813899.999,-58.594,-23.926,-166.016,-42.969,0.000
1742813900.002,-55.176,-25.879,-151.855,-26.367,0.000
1742813900.006,-51.758,-26.367,-160.645,-20.508,0.000
1742813900.010,-59.082,-26.855,-151.367,-22.461,0.000
1742813900.014,-71.777,-24.902,-138.184,-36.621,0.000
1742813900.018,-75.195,-21.484,-140.625,-50.293,0.000
1742813900.022,-73.730,-20.020,-143.066,-56.152,0.000
1742813900.026,-76.660,-21.484,-137.207,-61.523,0.000
1742813900.030,-79.102,-24.902,-136.719,-48.828,0.000
1742813900.034,-88.867,-31.250,-127.930,-53.223,0.000
1742813900.038,-90.820,-31.738,-118.652,-53.223,0.000
1742813900.041,-83.496,-32.715,-118.652,-41.992,0.000
1742813900.045,-72.754,-38.086,-107.422,-38.086,0.000
1742813900.049,-61.035,-33.691,-118.164,-23.438,0.000
1742813900.053,-65.430,-27.344,-128.418,-32.227,0.000
1742813900.057,-71.289,-24.414,-119.629,-34.668,0.000
1742813900.061,-63.965,-21.973,-112.793,-24.902,0.000
1742813900.065,-66.895,-26.367,-122.559,-35.645,0.000
1742813900.069,-65.430,-32.715,-126.465,-31.250,0.000
1742813900.073,-60.059,-33.203,-113.770,-25.391,0.000
1742813900.077,-61.523,-33.203,-105.957,-27.344,0.000
1742813900.081,-49.805,-31.738,-100.586,-10.254,0.000
1742813900.084,-36.621,-29.297,-125.977,0.000,0.000
1742813900.088,-31.250,-25.391,-132.812,-8.301,0.000
1742813900.092,-36.621,-22.461,-132.324,-20.020,0.000
1742813900.096,-50.781,-22.949,-170.410,-44.922,0.000
1742813900.100,-62.012,-28.320,-189.453,-35.645,0.000
1742813900.104,-57.617,-23.926,-186.035,-8.789,0.000
1742813900.108,-58.594,-21.973,-187.988,-13.184,0.000
1742813900.112,-61.523,-24.902,-187.988,-19.531,0.000
1742813900.116,-59.082,-22.461,-156.250,-20.996,0.000
1742813900.120,-54.688,-28.320,-129.395,-36.133,0.000
1742813900.124,-41.016,-24.414,-108.887,-36.621,0.000
1742813900.127,-32.227,-17.090,-100.586,-24.414,0.000
1742813900.131,-40.039,-24.902,-112.305,-27.832,0.000
1742813900.135,-51.758,-22.949,-89.844,-49.316,0.000
1742813900.139,-50.293,-18.066,-82.520,-36.133,0.000
1742813900.143,-44.434,-22.461,-107.910,-11.230,0.000
1742813900.147,-41.016,-20.996,-107.910,-6.348,0.000
1742813900.151,-40.039,-16.113,-91.309,-11.230,0.000
1742813900.155,-47.363,-14.160,-90.820,-26.367,0.000
1742813900.159,-60.059,-18.555,-101.562,-23.438,0.000
1742813900.163,-47.363,-23.438,-84.961,-18.555,0.000
1742813900.166,-32.715,-25.879,-44.922,-20.996,0.000
1742813900.170,-28.320,-27.832,-39.062,-33.203,0.000
1742813900.174,-26.855,-26.367,-59.082,-20.020,0.000
1742813900.178,-20.508,-25.391,-35.645,1.465,0.000
1742813900.182,-9.766,-25.391,-14.160,-5.859,0.000
1742813900.186,3.906,-20.996,-28.809,-7.324,0.000
1742813900.190,0.000,-20.020,-37.109,-5.859,0.000
1742813900.194,-13.672,-17.578,-31.738,-20.020,0.000
1742813900.198,-21.973,-16.113,-23.926,-20.508,0.000
1742813900.202,-27.344,-23.438,-22.949,1.953,0.000
1742813900.206,-27.832,-28.320,-29.297,-3.418,0.000
1742813900.209,-30.273,-28.320,-28.320,-13.184,0.000
1742813900.213,-41.992,-24.414,-31.738,-15.137,0.000
1742813900.217,-41.992,-21.973,-44.434,-7.812,0.000
1742813900.221,-39.551,-24.902,-43.945,-6.348,0.000
1742813900.225,-45.898,-29.785,-41.992,-28.320,0.000
1742813900.229,-37.109,-29.785,-41.016,-40.527,0.000
1742813900.233,-38.086,-30.762,-38.086,-44.922,0.000
1742813900.237,-65.918,-33.203,-28.320,-43.457,0.000
1742813900.241,-67.871,-33.691,-20.020,-55.664,0.000
1742813900.245,-53.223,-29.785,-26.855,-50.293,0.000
1742813900.249,-56.641,-22.949,-36.621,-51.270,0.000
1742813900.252,-62.500,-20.020,-33.691,-58.594,0.000
1742813900.256,-64.941,-18.555,-27.832,-59.082,0.000
1742813900.260,-56.641,-13.184,-22.461,-63.965,0.000
1742813900.264,-46.875,-12.207,-31.738,-56.152,0.000
1742813900.268,-57.617,-16.113,-21.973,-48.340,0.000
1742813900.272,-65.430,-21.973,1.465,-52.734,0.000
1742813900.276,-61.523,-24.902,-11.719,-56.152,0.000
1742813900.280,-55.664,-22.461,-53.223,-51.758,0.000
1742813900.284,-52.246,-20.508,-59.570,-35.645,0.000
1742813900.287,-50.781,-25.391,-44.434,-24.414,0.000
1742813900.291,-58.105,-26.855,-39.551,-38.086,0.000
1742813900.295,-63.477,-23.438,-30.273,-39.551,0.000
1742813900.299,-59.570,-21.973,-13.184,-22.949,0.000
1742813900.303,-49.316,-24.902,-7.324,-24.902,0.000
1742813900.307,-42.969,-23.926,-8.301,-29.785,0.000
1742813900.311,-45.898,-16.602,-6.836,-48.828,0.000
1742813900.315,-51.758,-15.625,12.695,-37.109,0.000
1742813900.319,-42.969,-12.695,47.852,-17.090,0.000
1742813900.323,-31.738,-11.230,51.758,-32.227,0.000
1742813900.327,-26.367,-16.113,51.758,-25.391,0.000
1742813900.330,-33.691,-15.625,78.125,-31.250,0.000
1742813900.334,-53.223,-12.207,92.773,-48.828,0.000
1742813900.338,-59.570,-12.207,117.188,-44.434,0.000
1742813900.342,-54.688,-17.090,142.090,-55.176,0.000
1742813900.346,-56.152,-20.020,140.625,-49.805,0.000
1742813900.350,-61.523,-20.508,120.117,-55.176,0.000
1742813900.354,-66.406,-21.484,114.258,-64.941,0.000
1742813900.358,-64.453,-24.902,104.492,-46.387,0.000
1742813900.362,-57.617,-24.414,87.402,-33.691,0.000
1742813900.366,-38.574,-19.531,69.824,-25.879,0.000
1742813900.370,-31.738,-18.066,46.387,-26.855,0.000
1742813900.373,-46.387,-22.461,52.246,-18.555,0.000
1742813900.377,-42.969,-23.438,57.129,-15.625,0.000
1742813900.381,-29.785,-21.973,45.410,-19.531,0.000
1742813900.385,-16.113,-12.695,43.457,-1.465,0.000
1742813900.389,-5.859,-7.812,67.871,2.930,0.000
1742813900.393,-14.160,-12.695,69.336,-9.277,0.000
1742813900.397,-15.625,-15.625,49.805,-14.160,0.000
1742813900.401,-7.812,-16.113,43.945,-13.184,0.000
1742813900.405,-1.953,-18.555,39.062,-4.883,0.000
1742813900.409,-5.371,-21.484,44.434,-11.230,0.000
1742813900.413,-16.602,-21.973,35.156,-2.930,0.000
1742813900.416,-23.438,-22.461,27.344,7.812,0.000
1742813900.420,-22.949,-21.973,45.898,9.277,0.000
1742813900.424,-20.996,-25.391,39.062,-2.930,0.000
1742813900.428,-21.973,-27.344,35.645,-2.441,0.000
1742813900.432,-25.391,-23.926,41.504,-14.160,0.000
1742813900.436,-29.297,-19.531,44.922,-27.344,0.000
1742813900.440,-22.461,-18.555,48.828,-9.766,0.000
1742813900.444,-19.531,-25.391,38.086,-11.230,0.000
1742813900.448,-17.090,-27.344,30.273,-4.395,0.000
1742813900.452,-15.625,-21.973,21.973,-4.883,0.000
1742813900.456,-30.762,-18.066,17.578,-24.902,0.000
1742813900.459,-38.574,-20.020,8.789,-32.227,0.000
1742813900.463,-36.621,-24.414,13.184,-21.484,0.000
1742813900.467,-30.762,-21.973,35.645,-23.926,0.000
1742813900.471,-31.738,-15.625,33.203,-27.344,0.000
1742813900.475,-42.480,-20.508,25.879,-28.320,0.000
1742813900.479,-39.551,-25.391,37.598,-35.645,0.000
1742813900.483,-29.297,-26.367,35.645,-41.992,0.000
1742813900.487,-20.020,-25.879,20.996,-44.434,0.000
1742813900.491,-18.066,-21.484,30.762,-32.715,0.000
1742813900.495,-30.273,-21.973,38.574,-29.297,0.000
1742813900.498,-29.785,-17.578,29.785,-20.508,0.000
1742813900.502,-25.879,-20.020,17.090,-15.137,0.000
1742813900.506,-30.273,-23.438,19.531,-19.531,0.000
1742813900.510,-43.457,-21.973,31.250,-26.855,0.000
1742813900.514,-57.617,-27.832,24.414,-26.367,0.000
1742813900.518,-57.129,-26.367,12.695,-20.508,0.000
1742813900.522,-59.082,-26.855,20.508,-39.551,0.000
1742813900.526,-58.594,-33.203,26.367,-45.898,0.000
1742813900.530,-55.664,-31.250,14.648,-29.785,0.000
1742813900.534,-62.988,-28.809,0.000,-41.504,0.000
1742813900.538,-72.754,-28.320,1.953,-54.199,0.000
1742813900.541,-67.383,-26.855,12.207,-52.246,0.000
1742813900.545,-53.711,-25.391,4.395,-41.992,0.000
1742813900.549,-54.688,-26.855,-17.090,-48.828,0.000
1742813900.553,-65.918,-27.344,-8.301,-62.012,0.000
1742813900.557,-62.012,-23.926,-12.207,-61.523,0.000
1742813900.561,-48.340,-22.461,-30.273,-58.594,0.000
1742813900.565,-40.527,-23.438,-23.926,-55.664,0.000
1742813900.569,-32.715,-19.531,-6.836,-43.457,0.000
1742813900.573,-38.574,-15.137,1.465,-40.527,0.000
1742813900.577,-43.945,-17.578,9.766,-49.316,0.000
1742813900.580,-29.785,-20.020,40.527,-36.621,0.000
1742813900.584,-11.230,-17.090,65.430,-23.926,0.000
1742813900.588,-8.301,-18.555,59.082,-16.602,0.000
1742813900.592,-21.484,-21.484,51.270,-2.441,0.000
1742813900.596,-26.855,-21.973,90.332,-1.953,0.000
1742813900.600,-22.461,-23.438,146.973,-12.207,0.000
1742813900.604,-8.301,-20.508,150.391,-12.695,0.000
1742813900.608,0.488,-20.996,132.324,-21.973,0.000
1742813900.612,-6.348,-20.996,126.953,-27.832,0.000
1742813900.616,-23.438,-22.461,125.488,-21.484,0.000
1742813900.620,-26.367,-26.855,146.973,-22.461,0.000
1742813900.623,-10.742,-27.344,135.742,-20.996,0.000
1742813900.627,-7.324,-25.879,112.305,-17.090,0.000
1742813900.631,-13.184,-21.973,113.281,-25.391,0.000
1742813900.635,-21.484,-18.066,90.820,-40.039,0.000
1742813900.639,-20.020,-13.672,49.316,-15.137,0.000
1742813900.643,-19.043,-16.113,27.344,-17.090,0.000
1742813900.647,-24.414,-24.902,4.883,-37.109,0.000
1742813900.651,-32.715,-26.855,-23.438,-29.297,0.000
1742813900.655,-41.992,-27.344,-47.363,-39.062,0.000
1742813900.659,-40.527,-26.855,-19.531,-36.621,0.000
1742813900.662,-27.832,-27.344,0.488,-18.066,0.000
1742813900.666,-18.066,-24.414,-18.066,-19.043,0.000
1742813900.670,-21.973,-20.020,-15.625,-43.457,0.000
1742813900.674,-39.551,-21.973,-2.441,-55.176,0.000
1742813900.678,-45.898,-19.531,0.000,-51.270,0.000
1742813900.682,-42.480,-20.020,-19.531,-58.105,0.000
1742813900.686,-36.133,-26.855,-38.086,-57.617,0.000
1742813900.690,-30.762,-26.367,-36.133,-53.223,0.000
1742813900.694,-28.320,-23.926,-25.391,-54.688,0.000
1742813900.698,-22.949,-24.902,-35.645,-29.297,0.000
1742813900.702,-12.695,-19.531,-68.359,-13.672,0.000
1742813900.705,-8.789,-18.066,-62.500,-17.090,0.000
1742813900.709,-11.230,-17.090,-67.871,-14.160,0.000
1742813900.713,-16.113,-14.648,-86.914,-32.715,0.000
1742813900.717,-24.414,-18.555,-81.055,-37.598,0.000
1742813900.721,-25.879,-22.949,-83.984,-21.484,0.000
1742813900.725,-23.438,-28.809,-95.215,-21.973,0.000
1742813900.729,-20.508,-28.320,-86.426,-25.391,0.000
1742813900.733,-21.973,-28.320,-81.055,-11.719,0.000
1742813900.737,-29.297,-28.809,-70.801,-10.742,0.000
1742813900.741,-27.344,-21.973,-72.266,-22.949,0.000
1742813900.745,-22.949,-19.531,-101.074,-24.902,0.000
1742813900.748,-30.762,-20.020,-77.637,-21.973,0.000
1742813900.752,-41.992,-20.020,-55.176,-27.832,0.000
1742813900.756,-52.734,-20.508,-69.824,-44.434,0.000
1742813900.760,-54.688,-21.484,-57.129,-34.668,0.000
1742813900.764,-37.598,-23.438,-43.457,-26.367,0.000
1742813900.768,-36.133,-24.902,-60.547,-28.320,0.000
1742813900.772,-44.922,-25.391,-80.078,-32.715,0.000
1742813900.776,-45.898,-22.461,-80.078,-31.250,0.000
1742813900.780,-46.875,-20.508,-79.102,-26.367,0.000
1742813900.784,-46.387,-25.391,-73.730,-36.133,0.000
1742813900.788,-41.992,-24.414,-72.754,-39.551,0.000
1742813900.791,-43.945,-23.438,-82.031,-29.785,0.000
1742813900.795,-52.246,-28.320,-75.195,-26.367,0.000
1742813900.799,-59.082,-31.250,-86.426,-36.621,0.000
1742813900.803,-47.363,-29.297,-102.051,-50.781,0.000
1742813900.807,-33.203,-21.973,-93.262,-46.387,0.000
1742813900.811,-43.945,-24.414,-20.996,-51.758,0.000
1742813900.815,-52.734,-26.367,15.137,-62.012,0.000
1742813900.819,-59.082,-20.996,-7.812,-37.109,0.000
1742813900.823,-53.711,-24.414,-13.672,-24.902,0.000
1742813900.827,-42.969,-30.762,-22.461,-31.738,0.000
1742813900.830,-38.086,-27.832,-16.602,-23.926,0.000
1742813900.834,-41.504,-27.344,-30.273,-17.090,0.000
1742813900.838,-42.969,-24.902,-44.922,-15.625,0.000
1742813900.842,-38.086,-21.973,-60.547,-28.809,0.000
1742813900.846,-33.203,-20.996,-90.332,-24.902,0.000
1742813900.850,-31.250,-25.879,-94.727,-29.785,0.000
1742813900.854,-41.016,-28.809,-81.543,-36.621,0.000
1742813900.858,-44.922,-24.414,-74.707,-23.438,0.000
1742813900.862,-33.203,-20.996,-80.078,-23.926,0.000
1742813900.866,-16.113,-21.484,-80.078,-29.785,0.000
1742813900.870,-11.230,-25.391,-95.703,-22.949,0.000
1742813900.873,-20.996,-23.438,-119.141,-1.953,0.000
1742813900.877,-18.066,-16.602,-131.836,-14.648,0.000
1742813900.881,-13.184,-18.066,-148.438,-17.578,0.000
1742813900.885,-5.371,-23.438,-136.719,-10.254,0.000
1742813900.889,-9.766,-24.902,-131.348,-16.113,0.000
1742813900.893,-30.762,-28.809,-132.324,-18.555,0.000
1742813900.897,-32.227,-33.203,-106.445,-17.578,0.000
1742813900.901,-13.672,-29.297,-92.285,-5.371,0.000
1742813900.905,-6.348,-27.344,-94.727,-5.371,0.000
1742813900.909,-9.277,-27.344,-101.074,-18.066,0.000
1742813900.912,-13.184,-23.926,-106.445,-31.738,0.000
1742813900.916,-20.508,-21.484,-102.539,-20.020,0.000
1742813900.920,-29.297,-28.320,-105.469,-4.883,0.000
1742813900.924,-21.973,-33.203,-112.793,-18.555,0.000
1742813900.928,-20.508,-27.344,-106.445,-33.203,0.000
1742813900.932,-35.156,-25.391,-94.727,-35.156,0.000
1742813900.936,-35.156,-27.832,-99.121,-30.762,0.000
1742813900.940,-32.227,-24.414,-113.281,-15.137,0.000
1742813900.944,-20.996,-19.043,-84.961,-12.695,0.000
1742813900.948,-20.020,-22.949,-88.867,-31.250,0.000
1742813900.952,-38.086,-20.020,-107.422,-43.457,0.000
1742813900.955,-47.363,-17.090,-84.961,-43.457,0.000
1742813900.959,-43.945,-17.578,-70.312,-33.691,0.000
1742813900.963,-37.109,-16.602,-83.984,-30.273,0.000
1742813900.967,-35.645,-20.020,-121.094,-35.645,0.000
1742813900.971,-48.340,-19.043,-136.719,-36.133,0.000
1742813900.975,-58.594,-13.184,-106.934,-32.227,0.000
1742813900.979,-53.223,-12.695,-77.637,-29.297,0.000
1742813900.983,-40.039,-15.625,-63.965,-41.992,0.000
1742813900.987,-34.180,-21.484,-55.176,-44.434,0.000
1742813900.991,-41.016,-22.949,-48.828,-22.461,0.000
1742813900.995,-44.922,-22.949,-42.480,-33.203,0.000
1742813900.998,-42.480,-23.438,-20.508,-33.203,0.000
1742813901.002,-35.645,-20.508,-22.949,-28.320,0.000
1742813901.006,-38.086,-22.949,-54.199,-25.391,0.000
1742813901.010,-44.922,-23.438,-72.266,-20.508,0.000
1742813901.014,-53.711,-22.949,-79.590,-46.387,0.000
1742813901.018,-53.223,-23.438,-80.566,-59.082,0.000
1742813901.022,-41.504,-22.949,-73.242,-36.133,0.000
1742813901.026,-30.762,-25.391,-62.500,-37.109,0.000
1742813901.030,-25.879,-25.879,-5.859,-38.574,0.000
1742813901.034,-39.062,-24.902,124.023,-33.691,0.000
1742813901.037,-44.434,-24.414,196.289,-27.832,0.000
1742813901.041,-40.039,-24.414,177.734,-33.691,0.000
1742813901.045,-35.156,-21.973,150.879,-42.969,0.000
1742813901.049,-40.039,-22.949,144.043,-44.922,0.000
1742813901.053,-48.340,-28.809,159.668,-45.410,0.000
1742813901.057,-53.223,-28.320,257.324,-39.551,0.000
1742813901.061,-59.082,-31.250,378.418,-31.250,0.000
1742813901.065,-52.246,-30.273,442.383,-24.414,0.000
1742813901.069,-38.086,-32.227,472.656,-34.668,0.000
1742813901.073,-38.574,-34.668,480.957,-33.691,0.000
1742813901.077,-41.504,-27.832,508.789,-26.855,0.000
1742813901.080,-28.320,-18.555,559.570,-22.461,0.000
1742813901.084,-18.066,-18.066,572.754,-5.371,0.000
1742813901.088,-18.066,-22.949,576.660,-20.508,0.000
1742813901.092,-30.273,-25.879,628.418,-32.227,0.000
1742813901.096,-32.715,-23.926,644.531,-20.508,0.000
1742813901.100,-20.508,-24.414,623.047,-22.949,0.000
1742813901.104,-13.184,-27.344,591.309,-36.621,0.000
1742813901.108,-16.602,-28.320,552.734,-25.879,0.000
1742813901.112,-20.020,-25.879,542.969,-30.273,0.000
1742813901.116,-24.414,-24.414,520.996,-35.645,0.000
1742813901.119,-27.344,-29.785,468.262,-27.832,0.000
1742813901.123,-27.344,-34.180,468.750,-25.391,0.000
1742813901.127,-17.578,-33.203,470.703,-33.203,0.000
1742813901.131,-15.137,-32.715,447.266,-36.621,0.000
1742813901.135,-30.273,-33.691,431.152,-33.691,0.000
1742813901.139,-32.715,-34.180,417.480,-40.527,0.000
1742813901.143,-22.461,-27.832,398.926,-47.363,0.000
1742813901.147,-20.020,-20.996,372.559,-41.016,0.000
1742813901.151,-26.855,-15.137,351.074,-29.785,0.000
1742813901.155,-36.133,-8.301,348.145,-30.762,0.000
1742813901.159,-39.062,-18.066,352.539,-45.898,0.000
1742813901.162,-28.809,-30.762,323.730,-26.367,0.000
1742813901.166,-33.203,-32.227,292.969,-14.160,0.000
1742813901.170,-47.363,-35.156,312.500,-20.508,0.000
1742813901.174,-44.922,-33.691,310.547,-27.344,0.000
1742813901.178,-37.109,-25.879,294.922,-26.367,0.000
1742813901.182,-32.227,-23.926,307.129,-23.926,0.000
1742813901.186,-20.508,-22.949,323.730,-21.484,0.000
1742813901.190,-23.926,-19.043,314.453,-7.324,0.000
1742813901.194,-35.156,-21.973,314.453,-17.090,0.000
1742813901.198,-41.504,-27.832,361.328,-35.156,0.000
1742813901.202,-35.156,-30.273,380.859,-24.414,0.000
1742813901.205,-17.090,-28.809,354.004,-18.555,0.000
1742813901.209,-16.113,-25.391,328.613,-11.230,0.000
1742813901.213,-31.250,-26.855,341.797,-23.438,0.000
1742813901.217,-39.062,-23.438,349.121,-37.109,0.000
1742813901.221,-34.668,-19.043,332.031,-35.645,0.000
1742813901.225,-26.855,-18.555,328.613,-32.715,0.000
1742813901.229,-27.344,-21.973,324.707,-36.621,0.000
1742813901.233,-34.180,-26.367,328.125,-47.852,0.000
1742813901.237,-43.457,-27.832,350.098,-22.461,0.000
1742813901.241,-38.086,-22.949,371.094,-13.184,0.000
1742813901.244,-28.320,-16.113,368.164,-26.855,0.000
1742813901.248,-31.250,-16.113,343.262,-38.086,0.000
1742813901.252,-39.551,-17.090,333.984,-49.316,0.000
1742813901.256,-48.828,-20.020,327.637,-39.551,0.000
1742813901.260,-53.223,-23.926,325.195,-42.969,0.000
1742813901.264,-48.340,-30.762,282.715,-49.805,0.000
1742813901.268,-34.180,-31.250,242.676,-54.199,0.000
1742813901.272,-30.273,-25.879,243.164,-52.734,0.000
1742813901.276,-28.809,-21.973,255.371,-52.246,0.000
1742813901.280,-27.344,-19.531,249.512,-41.016,0.000
1742813901.284,-28.320,-17.578,257.812,-18.555,0.000
1742813901.287,-27.344,-14.160,344.238,-12.695,0.000
1742813901.291,-30.762,-13.672,400.879,-17.578,0.000
1742813901.295,-39.062,-17.578,367.676,-24.902,0.000
1742813901.299,-36.621,-20.508,344.238,-28.809,0.000
1742813901.303,-21.973,-26.367,361.328,-28.320,0.000
1742813901.307,-15.625,-27.344,349.609,-16.113,0.000
1742813901.311,-23.438,-24.902,302.246,-13.672,0.000
1742813901.315,-23.926,-20.996,285.645,-17.578,0.000
1742813901.319,-17.090,-18.066,268.555,3.906,0.000
1742813901.323,-8.301,-15.625,215.332,4.883,0.000
1742813901.326,-4.883,-14.160,175.293,-8.789,0.000
1742813901.330,-11.719,-20.508,165.527,-14.648,0.000
1742813901.334,-23.438,-25.879,139.160,-12.695,0.000
1742813901.338,-29.785,-26.367,139.160,-3.906,0.000
1742813901.342,-27.344,-25.879,148.926,0.977,0.000
1742813901.346,-16.113,-20.020,139.648,-7.324,0.000
1742813901.350,-10.742,-13.184,146.484,-19.531,0.000
1742813901.354,-24.902,-13.184,102.539,-11.230,0.000
1742813901.358,-26.855,-16.113,45.410,-12.695,0.000
1742813901.362,-21.484,-18.066,44.434,-14.648,0.000
1742813901.365,-20.996,-20.996,51.270,-12.207,0.000
1742813901.369,-24.414,-25.391,34.180,-24.414,0.000
1742813901.373,-33.203,-26.855,37.598,-20.020,0.000
1742813901.377,-42.969,-27.344,71.777,-22.949,0.000
1742813901.381,-40.039,-25.391,52.246,-33.691,0.000
1742813901.385,-23.438,-19.043,22.949,-22.949,0.000
1742813901.389,-17.578,-17.578,4.883,-26.367,0.000
1742813901.393,-37.109,-15.137,17.090,-45.898,0.000
1742813901.397,-42.969,-14.160,48.828,-46.387,0.000
1742813901.401,-24.902,-17.578,44.434,-41.992,0.000
1742813901.405,-22.949,-21.484,25.879,-35.156,0.000
1742813901.408,-32.227,-25.879,29.297,-20.020,0.000
1742813901.412,-39.062,-23.926,34.668,-21.484,0.000
1742813901.416,-40.527,-22.461,31.250,-38.086,0.000
1742813901.420,-37.598,-20.508,18.066,-39.551,0.000
1742813901.424,-34.180,-18.555,7.812,-25.391,0.000
1742813901.428,-28.320,-18.555,21.484,-24.902,0.000
1742813901.432,-36.621,-20.508,33.691,-44.922,0.000
1742813901.436,-50.293,-26.855,39.551,-53.223,0.000
1742813901.440,-43.457,-25.879,62.500,-42.969,0.000
1742813901.444,-30.273,-28.320,77.148,-37.109,0.000
1742813901.448,-23.438,-26.855,62.988,-32.227,0.000
1742813901.452,-32.715,-20.508,72.266,-27.344,0.000
1742813901.455,-49.805,-16.602,110.840,-33.691,0.000
1742813901.459,-42.480,-4.883,106.934,-21.484,0.000
1742813901.463,-28.320,-5.859,72.754,-35.645,0.000
1742813901.467,-29.785,-15.137,67.871,-49.805,0.000
1742813901.471,-43.457,-20.020,83.496,-42.480,0.000
1742813901.475,-51.758,-20.996,107.910,-42.969,0.000
1742813901.479,-45.898,-17.090,130.859,-31.738,0.000
1742813901.483,-39.551,-14.160,127.441,-13.672,0.000
1742813901.487,-31.250,-20.020,151.367,-34.668,0.000
1742813901.491,-25.879,-18.555,178.223,-45.410,0.000
1742813901.495,-33.203,-9.766,160.156,-14.648,0.000
1742813901.498,-33.203,-7.812,161.621,-32.227,0.000
1742813901.502,-24.414,-10.742,151.367,-46.387,0.000
1742813901.506,-24.414,-14.160,133.301,-39.551,0.000
