timestamps,TP9,AF7,AF8,TP10,Right AUX
1742813782.542,-59.570,-27.832,-113.770,-40.527,0.000
1742813782.546,-59.570,-29.297,-119.629,-48.828,0.000
1742813782.550,-68.359,-31.738,-124.512,-73.730,0.000
1742813782.554,-68.848,-27.832,-126.953,-57.129,0.000
1742813782.558,-64.941,-27.344,-123.535,-48.828,0.000
1742813782.562,-55.176,-22.949,-116.699,-75.195,0.000
1742813782.566,-36.133,-20.996,-121.094,-83.008,0.000
1742813782.570,-43.457,-28.809,-127.930,-72.754,0.000
1742813782.573,-58.105,-33.203,-123.047,-60.547,0.000
1742813782.577,-55.664,-35.645,-122.559,-50.293,0.000
1742813782.581,-41.504,-32.715,-118.164,-29.785,0.000
1742813782.585,-34.180,-25.879,-115.723,-15.137,0.000
1742813782.589,-42.480,-22.949,-122.070,-34.180,0.000
1742813782.593,-45.410,-20.508,-125.000,-42.969,0.000
1742813782.597,-38.574,-18.555,-125.488,-26.367,0.000
1742813782.601,-13.672,-17.578,-122.559,-20.508,0.000
1742813782.605,-9.766,-21.973,-121.582,-14.648,0.000
1742813782.609,-26.855,-22.949,-117.676,-20.508,0.000
1742813782.613,-26.855,-18.066,-119.141,-15.625,0.000
1742813782.616,-23.926,-20.020,-123.047,-22.949,0.000
1742813782.620,-29.297,-21.484,-119.141,-40.039,0.000
1742813782.624,-41.016,-22.461,-119.141,-41.992,0.000
1742813782.628,-31.738,-19.531,-114.746,-18.555,0.000
1742813782.632,-23.438,-15.625,-114.258,1.465,0.000
1742813782.636,-28.320,-19.531,-118.164,-12.695,0.000
1742813782.640,-24.902,-29.297,-109.375,-18.555,0.000
1742813782.644,-36.621,-44.434,-118.164,-35.645,0.000
1742813782.648,-50.781,-33.203,-129.395,-69.336,0.000
1742813782.652,-44.434,-20.996,-125.000,-70.801,0.000
1742813782.655,-36.621,-23.438,-116.699,-32.715,0.000
1742813782.659,-37.109,-18.555,-116.211,-16.113,0.000
1742813782.663,-33.203,-16.113,-117.188,-10.742,0.000
1742813782.667,-26.367,-21.973,-115.234,-9.277,0.000
1742813782.671,-23.926,-24.902,-120.605,-15.137,0.000
1742813782.675,-33.691,-20.508,-116.211,-20.020,0.000
1742813782.679,-29.785,-14.160,-112.305,-41.992,0.000
1742813782.683,-27.344,-16.602,-118.164,-45.898,0.000
1742813782.687,-36.621,-24.414,-126.465,-23.926,0.000
1742813782.691,-40.039,-21.484,-125.488,-33.203,0.000
1742813782.694,-37.598,-17.090,-120.117,-30.762,0.000
1742813782.698,-44.434,-17.578,-119.629,-13.184,0.000
1742813782.702,-52.246,-23.438,-127.441,-11.719,0.000
1742813782.706,-45.898,-29.297,-132.324,-2.930,0.000
1742813782.710,-50.293,-27.344,-129.883,-30.273,0.000
1742813782.714,-47.852,-28.809,-126.465,-58.594,0.000
1742813782.718,-40.039,-32.715,-131.348,-57.617,0.000
1742813782.722,-42.480,-31.250,-130.371,-47.852,0.000
1742813782.726,-54.199,-28.320,-124.512,-53.223,0.000
1742813782.730,-60.547,-27.832,-123.047,-39.551,0.000
1742813782.734,-58.594,-29.297,-125.977,-36.133,0.000
1742813782.737,-52.734,-23.926,-124.023,-51.758,0.000
1742813782.741,-55.664,-24.902,-123.535,-79.590,0.000
1742813782.745,-66.406,-27.832,-127.930,-104.004,0.000
1742813782.749,-75.684,-30.273,-131.348,-74.707,0.000
1742813782.753,-82.520,-29.297,-132.324,-55.664,0.000
1742813782.757,-73.730,-28.320,-125.977,-48.340,0.000
1742813782.761,-67.871,-33.203,-125.000,-47.852,0.000
1742813782.765,-65.918,-30.273,-129.883,-74.707,0.000
1742813782.769,-53.711,-27.344,-124.023,-95.215,0.000
1742813782.773,-42.969,-26.367,-120.605,-80.078,0.000
1742813782.777,-37.109,-22.949,-125.488,-64.941,0.000
1742813782.780,-34.180,-26.855,-124.512,-58.594,0.000
1742813782.784,-33.203,-29.297,-128.906,-41.504,0.000
1742813782.788,-41.016,-28.809,-135.742,-42.969,0.000
1742813782.792,-51.270,-28.320,-138.184,-68.359,0.000
1742813782.796,-49.316,-25.391,-138.672,-68.359,0.000
1742813782.800,-39.062,-25.391,-135.254,-56.152,0.000
1742813782.804,-30.273,-29.785,-138.672,-51.758,0.000
1742813782.808,-36.621,-24.414,-136.230,-32.715,0.000
1742813782.812,-46.875,-15.137,-127.930,-35.645,0.000
1742813782.816,-45.898,-19.531,-131.836,-61.523,0.000
1742813782.819,-35.645,-20.020,-136.719,-61.523,0.000
1742813782.823,-26.367,-17.090,-132.812,-48.828,0.000
1742813782.827,-22.461,-23.438,-133.301,-58.105,0.000
1742813782.831,-33.203,-27.832,-136.719,-66.895,0.000
1742813782.835,-40.527,-27.344,-141.602,-49.316,0.000
1742813782.839,-25.391,-27.832,-144.531,-29.785,0.000
1742813782.843,-19.531,-25.391,-139.160,-13.672,0.000
1742813782.847,-35.645,-24.902,-136.719,-20.020,0.000
1742813782.851,-45.898,-23.926,-145.020,-32.715,0.000
1742813782.855,-43.457,-26.367,-143.066,-16.113,0.000
1742813782.859,-48.828,-33.691,-131.348,-20.508,0.000
1742813782.862,-46.875,-30.273,-125.488,-42.480,0.000
1742813782.866,-35.645,-26.855,-128.418,-74.219,0.000
1742813782.870,-34.668,-32.715,-134.277,-83.496,0.000
1742813782.874,-32.227,-37.109,-135.254,-45.410,0.000
1742813782.878,-30.273,-33.691,-134.277,-12.207,0.000
1742813782.882,-23.438,-27.832,-127.441,-13.672,0.000
1742813782.886,-13.672,-22.461,-125.000,-13.672,0.000
1742813782.890,-13.184,-25.391,-129.395,-5.371,0.000
1742813782.894,-8.301,-27.832,-122.559,8.789,0.000
1742813782.898,-7.812,-31.738,-117.188,31.738,0.000
1742813782.902,-5.371,-27.344,-120.605,49.316,0.000
1742813782.905,0.000,-19.531,-119.141,7.812,0.000
1742813782.909,-15.137,-21.973,-118.652,-34.668,0.000
1742813782.913,-19.531,-21.484,-126.465,-12.207,0.000
1742813782.917,-16.113,-23.438,-131.348,-12.207,0.000
1742813782.921,-20.996,-27.344,-125.488,-31.250,0.000
1742813782.925,-23.926,-23.926,-123.047,-41.992,0.000
1742813782.929,-20.508,-24.902,-131.348,-46.387,0.000
1742813782.933,-24.414,-29.785,-138.184,-33.691,0.000
1742813782.937,-23.926,-30.273,-135.254,-43.457,0.000
1742813782.941,-18.555,-23.438,-136.719,-55.176,0.000
1742813782.944,-29.297,-22.461,-140.625,-41.504,0.000
1742813782.948,-41.016,-23.438,-131.348,-52.246,0.000
1742813782.952,-60.547,-23.438,-129.883,-50.293,0.000
1742813782.956,-59.082,-22.461,-131.348,-25.879,0.000
1742813782.960,-43.457,-23.926,-123.047,-25.879,0.000
1742813782.964,-41.016,-30.762,-120.605,-35.156,0.000
1742813782.968,-59.082,-34.180,-129.395,-55.176,0.000
1742813782.972,-72.754,-32.715,-129.395,-56.641,0.000
1742813782.976,-64.453,-30.273,-130.371,-50.293,0.000
1742813782.980,-51.758,-27.344,-136.230,-55.176,0.000
1742813782.984,-38.574,-26.367,-135.254,-56.152,0.000
1742813782.987,-40.527,-23.438,-138.184,-42.969,0.000
1742813782.991,-49.316,-23.926,-144.531,-23.438,0.000
1742813782.995,-52.246,-30.273,-140.137,-25.391,0.000
1742813782.999,-38.086,-29.297,-137.207,-37.109,0.000
1742813783.003,-28.809,-28.809,-136.230,-37.109,0.000
1742813783.007,-33.691,-30.273,-130.371,-46.387,0.000
1742813783.011,-37.598,-31.738,-134.277,-44.434,0.000
1742813783.015,-32.227,-32.227,-145.020,-24.414,0.000
1742813783.019,-24.902,-28.809,-146.973,-46.387,0.000
1742813783.023,-36.133,-31.250,-145.508,-77.148,0.000
1742813783.026,-49.316,-35.645,-144.531,-69.824,0.000
1742813783.030,-55.664,-39.551,-145.996,-65.430,0.000
1742813783.034,-62.988,-41.016,-142.578,-47.852,0.000
1742813783.038,-60.059,-39.551,-134.277,-36.133,0.000
1742813783.042,-49.805,-34.180,-134.277,-47.363,0.000
1742813783.046,-47.363,-28.809,-132.812,-18.066,0.000
1742813783.050,-51.758,-28.320,-128.418,-12.207,0.000
1742813783.054,-54.688,-29.297,-131.836,-39.062,0.000
1742813783.058,-47.852,-29.297,-131.836,-36.133,0.000
1742813783.062,-36.133,-27.344,-130.859,-44.434,0.000
1742813783.066,-31.738,-33.203,-140.625,-73.730,0.000
1742813783.069,-36.133,-32.227,-146.484,-70.312,0.000
1742813783.073,-42.969,-31.250,-145.996,-39.551,0.000
1742813783.077,-46.387,-34.668,-145.020,-31.738,0.000
1742813783.081,-33.691,-29.785,-138.184,-15.625,0.000
1742813783.085,-21.484,-30.273,-132.812,-15.137,0.000
1742813783.089,-30.273,-33.691,-136.230,-27.344,0.000
1742813783.093,-30.762,-31.738,-139.160,-10.742,0.000
1742813783.097,-18.555,-27.832,-133.789,-0.977,0.000
1742813783.101,-18.555,-31.250,-132.324,-23.438,0.000
1742813783.105,-22.949,-32.715,-136.230,-31.738,0.000
1742813783.109,-17.578,-26.367,-135.742,-42.480,0.000
1742813783.112,-16.113,-25.391,-137.695,-52.734,0.000
1742813783.116,-5.371,-25.879,-139.648,-17.578,0.000
1742813783.120,0.977,-22.949,-141.602,0.000,0.000
1742813783.124,-13.184,-20.508,-145.020,-31.738,0.000
1742813783.128,-22.949,-24.414,-147.949,-55.664,0.000
1742813783.132,-30.273,-30.762,-146.973,-34.180,0.000
1742813783.136,-21.484,-24.902,-140.137,-11.719,0.000
1742813783.140,-12.207,-22.461,-135.254,7.324,0.000
1742813783.144,-6.348,-20.508,-125.000,14.160,0.000
1742813783.148,1.465,-16.113,-118.652,-0.977,0.000
1742813783.152,-8.301,-17.090,-122.559,-9.277,0.000
1742813783.155,-36.621,-24.414,-125.000,-21.973,0.000
1742813783.159,-46.387,-25.879,-127.930,-31.738,0.000
1742813783.163,-32.227,-28.320,-131.836,-16.602,0.000
1742813783.167,-33.691,-34.668,-131.348,1.465,0.000
1742813783.171,-40.039,-31.738,-127.930,-5.859,0.000
1742813783.175,-46.387,-31.250,-129.883,-38.086,0.000
1742813783.179,-38.574,-34.668,-132.324,-41.992,0.000
1742813783.183,-20.996,-31.250,-137.695,-27.344,0.000
1742813783.187,-14.648,-24.414,-141.602,-34.668,0.000
1742813783.191,-10.254,-17.090,-137.695,-37.598,0.000
1742813783.194,-7.324,-19.043,-140.625,-34.180,0.000
1742813783.198,-4.395,-22.461,-139.648,-32.715,0.000
1742813783.202,-10.254,-19.531,-140.137,-30.762,0.000
1742813783.206,-19.043,-15.625,-140.137,-45.410,0.000
1742813783.210,-22.461,-11.230,-133.789,-35.645,0.000
1742813783.214,-39.551,-17.090,-136.230,-31.738,0.000
1742813783.218,-39.062,-20.508,-136.719,-45.410,0.000
1742813783.222,-30.762,-19.531,-132.812,-36.133,0.000
1742813783.226,-38.574,-20.996,-133.789,-21.484,0.000
1742813783.230,-51.758,-24.902,-135.742,-38.086,0.000
1742813783.234,-58.105,-24.414,-125.000,-72.754,0.000
1742813783.237,-52.734,-22.949,-118.652,-65.430,0.000
1742813783.241,-34.668,-19.043,-119.141,-41.016,0.000
1742813783.245,-44.434,-18.066,-120.605,-46.387,0.000
1742813783.249,-55.664,-20.020,-121.582,-47.852,0.000
1742813783.253,-56.152,-19.043,-123.535,-55.664,0.000
1742813783.257,-63.965,-18.555,-125.000,-69.336,0.000
1742813783.261,-57.129,-19.043,-128.906,-76.660,0.000
1742813783.265,-57.617,-22.461,-131.836,-79.102,0.000
1742813783.269,-64.941,-23.926,-134.277,-68.359,0.000
1742813783.273,-63.965,-29.785,-139.160,-59.570,0.000
1742813783.277,-54.688,-26.855,-131.348,-58.105,0.000
1742813783.280,-51.270,-20.996,-126.465,-55.664,0.000
1742813783.284,-63.477,-24.902,-132.324,-80.078,0.000
1742813783.288,-75.195,-27.344,-133.789,-88.379,0.000
1742813783.292,-65.430,-22.461,-126.953,-63.965,0.000
1742813783.296,-54.199,-25.391,-125.488,-39.551,0.000
1742813783.300,-59.570,-34.180,-128.906,-30.273,0.000
1742813783.304,-49.805,-35.156,-130.859,-26.367,0.000
1742813783.308,-42.969,-34.180,-130.371,-33.203,0.000
1742813783.312,-52.734,-29.785,-125.000,-40.527,0.000
1742813783.316,-49.316,-23.438,-124.023,-12.207,0.000
1742813783.319,-41.992,-25.391,-124.512,-17.090,0.000
1742813783.323,-37.598,-27.832,-125.000,-28.320,0.000
1742813783.327,-36.621,-26.367,-130.371,-21.973,0.000
1742813783.331,-34.180,-26.855,-135.742,-13.184,0.000
1742813783.335,-24.414,-26.855,-137.695,7.324,0.000
1742813783.339,0.000,-26.855,0.000,-3.418,0.000
1742813783.343,0.000,-23.926,0.000,-23.926,0.000
1742813783.347,0.000,-20.996,0.000,-25.879,0.000
1742813783.351,0.000,-28.320,0.000,-24.414,0.000
1742813783.355,0.000,-33.203,0.000,-30.273,0.000
1742813783.359,0.000,-27.832,0.000,-16.602,0.000
1742813783.362,0.000,-30.273,0.000,0.000,0.000
1742813783.366,0.000,-37.109,0.000,11.719,0.000
1742813783.370,0.000,-36.133,0.000,-12.207,0.000
1742813783.374,0.000,-23.438,0.000,-36.621,0.000
1742813783.378,0.000,-21.484,0.000,-36.621,0.000
1742813783.382,0.000,-28.320,0.000,-42.969,0.000
1742813783.386,-38.574,-26.367,-138.184,-44.434,0.000
1742813783.390,-44.922,-25.879,-139.160,-51.270,0.000
1742813783.394,-48.340,-27.344,-137.207,-41.016,0.000
1742813783.398,-34.668,-27.344,-128.418,-17.578,0.000
1742813783.401,-23.438,-28.320,-130.371,-20.508,0.000
1742813783.405,-26.855,-29.297,-135.742,-32.715,0.000
1742813783.409,-33.203,-23.438,-134.766,-49.805,0.000
1742813783.413,-35.156,-20.996,-135.742,-40.527,0.000
1742813783.417,-27.344,-30.273,-136.230,-12.695,0.000
1742813783.421,-12.207,-29.785,-134.277,1.465,0.000
1742813783.425,-12.207,-22.949,-138.184,-12.695,0.000
1742813783.429,-24.902,-24.902,-140.137,-48.828,0.000
1742813783.433,-24.414,-23.438,-133.301,-39.062,0.000
1742813783.437,-15.625,-22.461,-130.859,5.371,0.000
1742813783.441,-29.785,-29.297,-128.906,20.508,0.000
1742813783.444,-33.691,-29.785,-129.395,-2.930,0.000
1742813783.448,-28.320,-24.414,-130.859,-43.457,0.000
1742813783.452,-47.852,-25.879,-133.301,-60.059,0.000
1742813783.456,-52.734,-25.391,-129.395,-52.734,0.000
1742813783.460,-34.668,-21.484,-123.535,-54.688,0.000
1742813783.464,-34.180,-23.438,-124.512,-62.012,0.000
1742813783.468,-51.758,-26.367,-131.836,-72.266,0.000
1742813783.472,-54.688,-25.879,-134.277,-77.148,0.000
1742813783.476,-51.758,-23.926,-130.371,-52.246,0.000
1742813783.480,-49.316,-27.832,-129.883,-25.879,0.000
1742813783.484,-46.387,-29.297,-125.977,-11.719,0.000
1742813783.487,-44.434,-30.273,-121.094,-3.418,0.000
1742813783.491,-49.805,-34.180,-129.395,-59.082,0.000
1742813783.495,-62.012,-29.785,-131.348,-107.910,0.000
1742813783.499,-52.734,-24.414,-128.906,-88.867,0.000
1742813783.503,-43.945,-25.879,-132.812,-68.359,0.000
1742813783.507,-52.246,-28.320,-129.883,-39.062,0.000
1742813783.511,-59.082,-26.367,-130.371,-33.203,0.000
1742813783.515,-58.105,-24.902,-130.859,-69.824,0.000
1742813783.519,-48.828,-25.879,-125.488,-88.867,0.000
1742813783.523,-34.668,-22.949,-123.047,-85.449,0.000
1742813783.527,-31.250,-19.043,-122.070,-77.148,0.000
1742813783.530,-53.223,-18.066,-124.023,-69.824,0.000
1742813783.534,-56.641,-13.672,-125.977,-45.410,0.000
1742813783.538,-37.598,-14.160,-126.465,-23.926,0.000
1742813783.542,-32.227,-22.461,-125.000,-36.621,0.000
1742813783.546,-40.527,-24.414,-121.094,-51.270,0.000
1742813783.550,-64.453,-23.926,-122.559,-57.617,0.000
1742813783.554,-69.336,-28.320,-125.977,-61.523,0.000
1742813783.558,-50.781,-29.785,-128.906,-41.992,0.000
1742813783.562,-35.156,-31.738,-129.883,-41.992,0.000
1742813783.565,-28.320,-28.320,-131.348,-50.781,0.000
1742813783.569,-30.762,-23.926,-136.719,-29.297,0.000
1742813783.573,-38.574,-28.809,-138.184,-35.645,0.000
1742813783.577,-38.574,-31.250,-135.742,-54.688,0.000
1742813783.581,-33.691,-27.344,-134.277,-47.852,0.000
1742813783.585,-30.273,-27.344,-131.836,-49.316,0.000
1742813783.589,-40.527,-32.715,-128.418,-50.781,0.000
1742813783.593,-53.711,-31.738,-125.488,-30.762,0.000
1742813783.597,-42.969,-27.832,-115.723,-1.465,0.000
1742813783.601,-29.297,-26.855,-109.375,-19.531,0.000
1742813783.605,-31.738,-26.367,-109.863,-68.359,0.000
1742813783.608,-42.969,-28.809,-105.469,-67.871,0.000
1742813783.612,-47.852,-29.297,-108.398,-27.344,0.000
1742813783.616,-33.203,-29.297,-110.352,24.902,0.000
1742813783.620,-33.203,-33.691,-105.469,30.273,0.000
1742813783.624,-34.180,-34.180,-106.934,-35.645,0.000
1742813783.628,-27.832,-26.855,-109.375,-56.641,0.000
1742813783.632,-38.574,-23.926,-106.934,-16.602,0.000
1742813783.636,-38.574,-25.391,-104.004,-15.137,0.000
1742813783.640,-28.320,-25.391,-104.980,-19.043,0.000
1742813783.644,-26.367,-24.414,-104.492,-0.977,0.000
1742813783.648,-35.645,-26.367,-108.887,5.371,0.000
1742813783.651,-50.293,-32.715,-112.793,-17.090,0.000
1742813783.655,-53.711,-41.992,-109.375,-53.223,0.000
1742813783.659,-45.898,-42.969,-108.398,-38.574,0.000
1742813783.663,-39.062,-38.086,-105.957,-10.742,0.000
1742813783.667,-41.016,-38.574,-103.516,-16.602,0.000
1742813783.671,-54.199,-43.945,-104.492,-19.043,0.000
1742813783.675,-60.059,-50.781,-105.957,-7.324,0.000
1742813783.679,-58.105,-49.805,-105.957,-16.113,0.000
1742813783.683,-55.176,-47.363,-103.027,-67.383,0.000
1742813783.687,-55.664,-43.945,-104.492,-103.516,0.000
1742813783.691,-55.664,-40.039,-106.445,-82.520,0.000
1742813783.694,-57.617,-43.945,-108.398,-67.383,0.000
1742813783.698,-57.617,-46.387,-104.980,-80.566,0.000
1742813783.702,-49.316,-43.457,-102.539,-104.492,0.000
1742813783.706,-51.270,-43.945,-108.887,-93.262,0.000
1742813783.710,-69.336,-43.457,-105.957,-66.406,0.000
1742813783.714,-81.543,-45.898,-101.074,-59.570,0.000
1742813783.718,-84.473,-54.688,-99.609,-60.547,0.000
1742813783.722,-89.355,-54.199,-98.633,-59.082,0.000
1742813783.726,-87.891,-49.316,-94.727,-35.645,0.000
1742813783.730,-85.449,-50.293,-96.191,-20.508,0.000
1742813783.733,-85.938,-44.434,-97.656,-46.875,0.000
1742813783.737,-76.660,-43.945,-100.586,-45.898,0.000
1742813783.741,-60.547,-47.852,-98.145,-32.715,0.000
1742813783.745,-64.453,-51.758,-91.797,-46.387,0.000
1742813783.749,-63.965,-56.152,-98.145,-28.809,0.000
1742813783.753,-56.641,-57.617,-105.469,-23.926,0.000
1742813783.757,-52.734,-54.688,-97.168,-48.828,0.000
1742813783.761,-43.945,-47.852,-89.844,-31.738,0.000
1742813783.765,-49.805,-48.340,-93.750,-19.043,0.000
1742813783.769,-55.176,-49.316,-96.191,-32.715,0.000
1742813783.773,-53.223,-44.922,-94.238,-41.504,0.000
1742813783.776,-49.805,-41.504,-91.309,-52.734,0.000
1742813783.780,-49.316,-44.922,-87.402,-64.941,0.000
1742813783.784,-48.828,-48.828,-88.867,-27.344,0.000
1742813783.788,-49.316,-49.805,-94.727,12.695,0.000
1742813783.792,-59.082,-47.852,-94.238,9.277,0.000
1742813783.796,-69.336,-46.875,-94.727,1.953,0.000
1742813783.800,-71.777,-49.805,-98.145,-28.809,0.000
1742813783.804,-65.430,-46.875,-94.238,-61.523,0.000
1742813783.808,-56.641,-45.410,-99.609,-44.922,0.000
1742813783.812,-60.547,-40.039,-101.074,-33.203,0.000
1742813783.815,-69.824,-41.504,-95.215,-18.066,0.000
1742813783.819,-67.871,-46.875,-92.285,-2.930,0.000
1742813783.823,-74.219,-51.270,-88.867,1.953,0.000
1742813783.827,-73.242,-52.734,-91.309,1.465,0.000
1742813783.831,-79.102,-54.199,-92.285,-9.766,0.000
1742813783.835,-92.773,-54.688,-88.379,12.207,0.000
1742813783.839,-85.938,-49.805,-87.402,30.762,0.000
1742813783.843,-84.473,-48.340,-87.402,5.371,0.000
1742813783.847,-105.469,-47.852,-78.125,0.977,0.000
1742813783.851,-104.004,-51.758,-70.801,15.137,0.000
1742813783.855,-95.703,-52.246,-68.848,39.551,0.000
1742813783.859,-112.305,-49.805,-65.918,27.832,0.000
1742813783.862,-122.559,-46.875,-65.430,-14.648,0.000
1742813783.866,-131.348,-41.016,-73.242,-18.555,0.000
1742813783.870,-156.738,-42.480,-82.031,-8.301,0.000
1742813783.874,-175.781,-41.016,-80.078,1.953,0.000
1742813783.878,-151.367,-38.086,-74.707,3.418,0.000
1742813783.882,-135.742,-46.875,-76.172,-12.695,0.000
1742813783.886,-151.855,-55.176,-79.102,-21.973,0.000
1742813783.890,-163.086,-61.523,-81.543,-9.277,0.000
1742813783.894,-174.316,-62.500,-76.660,-9.277,0.000
1742813783.897,-190.430,-57.129,-66.406,-2.930,0.000
1742813783.902,0.000,-55.176,-68.359,0.488,0.000
1742813783.905,0.000,-54.688,-74.707,-17.578,0.000
1742813783.909,0.000,-51.758,-75.195,-22.461,0.000
1742813783.913,0.000,-49.316,-72.266,-18.066,0.000
1742813783.917,0.000,-50.293,-67.383,-8.789,0.000
1742813783.921,0.000,-50.781,-59.570,-1.953,0.000
1742813783.925,0.000,-45.898,-64.941,-20.996,0.000
1742813783.929,0.000,-48.828,-71.289,-37.109,0.000
1742813783.933,0.000,-45.898,-75.195,-20.996,0.000
1742813783.937,0.000,-43.945,-81.543,-16.113,0.000
1742813783.941,0.000,-46.875,-82.520,-33.203,0.000
1742813783.944,0.000,-42.969,-83.984,-31.738,0.000
1742813783.948,-197.754,-46.875,-83.496,0.000,0.000
1742813783.952,-246.094,-51.270,-79.102,0.000,0.000
1742813783.956,-296.387,-49.805,-79.102,0.000,0.000
1742813783.960,-319.336,-44.922,-83.496,0.000,0.000
1742813783.964,-471.680,-37.598,-83.008,0.000,0.000
1742813783.968,-717.285,-34.180,-91.309,0.000,0.000
1742813783.972,-641.602,-29.785,-99.121,0.000,0.000
1742813783.976,-413.086,-29.785,-98.145,0.000,0.000
1742813783.979,-307.617,-41.016,-97.656,0.000,0.000
1742813783.983,-227.051,-45.898,-95.215,0.000,0.000
1742813783.987,-163.574,-45.410,-94.238,0.000,0.000
1742813783.991,-121.094,-45.410,-102.539,0.000,0.000
1742813783.995,84.473,-41.504,-102.539,-4.883,0.000
1742813783.999,97.168,-40.527,-97.656,-4.395,0.000
1742813784.003,112.793,-37.598,-101.562,-0.977,0.000
1742813784.007,118.164,-31.738,-101.562,9.277,0.000
1742813784.011,113.281,-29.297,-107.422,-3.418,0.000
1742813784.015,101.074,-36.133,-107.910,-18.555,0.000
1742813784.019,100.098,-41.016,-100.586,-10.254,0.000
1742813784.022,103.516,-40.039,-104.004,-4.395,0.000
1742813784.026,92.285,-38.086,-103.027,-0.977,0.000
1742813784.030,74.219,-36.621,-102.051,-20.508,0.000
1742813784.034,69.336,-37.598,-102.539,-28.320,0.000
1742813784.038,81.543,-34.180,-101.074,-20.020,0.000
1742813784.042,92.285,-25.391,-99.121,-11.230,0.000
1742813784.046,90.820,-17.578,-97.656,0.488,0.000
1742813784.050,84.473,-19.531,-104.980,1.465,0.000
1742813784.054,88.867,-21.484,-109.863,15.137,0.000
1742813784.058,88.867,-24.902,-113.770,20.020,0.000
1742813784.062,74.707,-33.203,-119.141,8.789,0.000
1742813784.065,66.406,-35.156,-124.023,2.441,0.000
1742813784.069,69.824,-31.738,-123.535,1.465,0.000
1742813784.073,65.918,-25.391,-123.535,14.160,0.000
1742813784.077,66.895,-20.020,-125.977,15.137,0.000
1742813784.081,75.195,-23.926,-128.906,11.719,0.000
1742813784.085,70.312,-22.461,-130.859,7.324,0.000
1742813784.089,0.000,-24.414,-131.836,-11.230,0.000
1742813784.093,0.000,-23.926,-132.812,4.883,0.000
1742813784.097,0.000,-34.668,-127.930,7.812,0.000
1742813784.101,0.000,-47.363,-125.977,-4.883,0.000
1742813784.105,0.000,-27.344,-130.371,16.113,0.000
1742813784.108,0.000,-12.207,-132.812,19.531,0.000
1742813784.112,0.000,-16.602,-134.277,0.000,0.000
1742813784.116,0.000,-21.484,-133.301,9.277,0.000
1742813784.120,0.000,-20.996,-133.301,10.254,0.000
1742813784.124,0.000,-10.254,-137.207,-18.066,0.000
1742813784.128,0.000,-13.672,-144.531,-48.340,0.000
1742813784.132,0.000,-14.648,-150.391,-54.199,0.000
1742813784.136,23.438,-15.137,-138.672,-42.969,0.000
1742813784.140,28.809,-23.438,-133.789,-41.992,0.000
1742813784.144,26.367,-50.293,-139.648,-49.316,0.000
1742813784.147,24.902,-79.590,-134.277,-46.387,0.000
1742813784.151,6.836,-43.945,-143.555,-33.203,0.000
1742813784.155,-23.926,0.977,-150.879,-38.086,0.000
1742813784.159,-33.691,-6.348,-136.230,-47.363,0.000
1742813784.163,-28.320,-17.090,-127.930,-54.688,0.000
1742813784.167,-31.738,-26.855,-130.371,-59.570,0.000
1742813784.171,-48.828,-34.668,-137.695,-57.617,0.000
1742813784.175,-38.086,-29.785,-142.090,-53.711,0.000
1742813784.179,-1.465,-24.902,-127.441,-56.152,0.000
1742813784.183,-6.348,-19.043,-135.742,-58.594,0.000
1742813784.187,-31.250,-16.113,-148.926,-69.336,0.000
1742813784.190,-31.250,-16.602,-133.789,-81.543,0.000
1742813784.194,-37.598,-22.461,-137.695,-96.191,0.000
1742813784.198,-21.973,-27.344,-134.277,-92.773,0.000
1742813784.202,-7.324,-28.320,-119.629,-65.918,0.000
1742813784.206,-26.855,-29.297,-114.746,-65.918,0.000
1742813784.210,-33.691,-22.461,-110.352,-61.523,0.000
1742813784.214,-18.066,-20.020,-118.164,-47.363,0.000
1742813784.218,-0.977,-20.020,-134.766,-46.387,0.000
1742813784.222,13.184,-14.160,-147.461,-54.199,0.000
1742813784.225,11.230,-12.207,-149.414,-63.965,0.000
1742813784.230,-13.184,-17.578,-148.926,-64.453,0.000
1742813784.233,-23.926,-22.461,-143.555,-44.922,0.000
1742813784.237,-7.324,-20.508,-134.277,-26.855,0.000
1742813784.241,5.859,-29.785,-126.465,-19.043,0.000
1742813784.245,10.742,-38.574,-127.930,-2.441,0.000
1742813784.249,12.207,-19.531,-134.766,14.648,0.000
1742813784.253,8.789,-10.742,-134.277,6.348,0.000
1742813784.257,15.625,-12.695,-128.418,-19.043,0.000
1742813784.261,27.344,-20.996,-125.977,-20.020,0.000
1742813784.265,15.625,-36.621,-133.301,-10.254,0.000
1742813784.268,7.324,-33.203,-128.418,-8.789,0.000
1742813784.272,12.695,-31.738,-122.559,-18.066,0.000
1742813784.276,7.324,-26.855,-130.371,-27.344,0.000
1742813784.280,10.742,-20.508,-135.254,-15.137,0.000
1742813784.284,12.695,-22.461,-138.184,-19.531,0.000
1742813784.288,-0.977,-24.902,-142.090,-29.785,0.000
1742813784.292,-3.906,-21.973,-144.531,-5.859,0.000
1742813784.296,-1.953,-22.949,-145.508,5.859,0.000
1742813784.300,5.371,-28.320,-136.230,17.578,0.000
1742813784.304,6.836,-26.855,-129.395,26.855,0.000
1742813784.308,-8.789,-31.250,-131.836,24.902,0.000
1742813784.311,-4.883,-34.668,-129.395,24.414,0.000
1742813784.315,-7.812,-28.809,-123.047,-0.977,0.000
1742813784.319,-20.996,-28.809,-130.371,-7.812,0.000
1742813784.323,-18.555,-28.320,-132.812,-3.906,0.000
1742813784.327,-10.254,-26.367,-129.883,-0.488,0.000
1742813784.331,-11.230,-24.902,-133.789,0.977,0.000
1742813784.335,-6.836,-25.879,-131.348,-12.207,0.000
1742813784.339,-5.859,-27.832,-130.371,-8.789,0.000
1742813784.343,-3.418,-26.855,-131.348,1.953,0.000
1742813784.347,4.883,-25.879,-136.719,0.000,0.000
1742813784.351,5.371,-17.578,-141.113,-5.371,0.000
1742813784.354,6.348,-13.184,-135.742,-3.418,0.000
1742813784.358,11.230,-13.184,-130.371,-2.441,0.000
1742813784.362,13.672,-24.902,-134.766,4.883,0.000
1742813784.366,2.930,-36.621,-135.742,19.043,0.000
1742813784.370,0.000,-34.180,-128.418,17.578,0.000
1742813784.374,0.000,-45.410,-123.047,23.438,0.000
1742813784.378,0.000,-41.992,-123.535,28.320,0.000
1742813784.382,0.000,-19.043,-126.953,24.902,0.000
1742813784.386,0.000,-14.648,-132.812,2.930,0.000
1742813784.390,0.000,-19.531,-137.207,-14.160,0.000
1742813784.394,0.000,-21.484,-136.230,7.812,0.000
1742813784.397,0.000,-28.320,-136.230,9.766,0.000
1742813784.401,0.000,-32.715,-130.371,0.977,0.000
1742813784.405,0.000,-36.621,-131.348,-17.090,0.000
1742813784.409,0.000,-40.039,-136.719,-52.734,0.000
1742813784.413,0.000,-38.086,-136.719,-63.965,0.000
1742813784.417,-46.875,-33.203,-145.996,-57.129,0.000
1742813784.421,-32.715,-25.879,-150.391,-65.918,0.000
1742813784.425,-18.066,-19.043,-145.996,-74.707,0.000
1742813784.429,-34.180,-28.320,-150.879,-67.871,0.000
1742813784.433,-35.645,-37.109,-150.391,-59.082,0.000
1742813784.437,-8.301,-27.832,-138.184,-22.461,0.000
1742813784.440,-3.906,-22.461,-137.207,-10.254,0.000
1742813784.444,-24.414,-24.902,-139.648,-17.090,0.000
1742813784.448,-27.832,-20.996,-140.137,-28.809,0.000
1742813784.452,-25.391,-9.277,-146.973,-44.434,0.000
1742813784.456,-12.695,-8.789,-150.879,-43.457,0.000
1742813784.460,4.395,-17.090,-148.438,-48.828,0.000
1742813784.464,3.418,-18.555,-151.367,-64.941,0.000
1742813784.468,7.324,-15.625,-152.832,-56.152,0.000
1742813784.472,4.883,-21.973,-143.066,-37.598,0.000
1742813784.476,3.906,-25.391,-138.672,-33.691,0.000
1742813784.479,6.348,-19.531,-140.625,-12.207,0.000
1742813784.483,-0.488,-21.484,-147.949,-6.836,0.000
1742813784.487,-19.043,-24.414,-145.996,-2.930,0.000
1742813784.491,-30.762,-21.484,-142.090,-5.371,0.000
1742813784.495,-21.484,-26.855,-150.391,-18.555,0.000
1742813784.499,2.930,-26.855,-158.203,-9.766,0.000
1742813784.503,20.508,-22.461,-162.109,9.277,0.000
1742813784.507,-9.766,-19.531,-153.809,-6.348,0.000
1742813784.511,0.000,-20.996,-146.484,-29.785,0.000
1742813784.515,0.000,-19.531,-152.344,-18.555,0.000
1742813784.519,0.000,-19.531,-157.715,-7.812,0.000
1742813784.522,0.000,-34.180,-161.133,-26.855,0.000
1742813784.526,0.000,-28.320,-162.109,-31.250,0.000
1742813784.530,0.000,-11.719,-163.086,-22.461,0.000
1742813784.534,0.000,-9.766,-161.621,-27.344,0.000
1742813784.538,0.000,-14.160,-154.297,-4.883,0.000
1742813784.542,0.000,-20.996,-152.344,22.949,0.000
1742813784.546,0.000,-16.602,-164.062,11.230,0.000
1742813784.550,0.000,-9.766,-164.551,2.930,0.000
1742813784.554,0.000,-9.766,-159.668,7.812,0.000
1742813784.558,-2.930,-12.207,-155.762,18.066,0.000
1742813784.561,21.973,-14.160,-158.691,38.574,0.000
1742813784.565,26.855,-15.137,-169.922,40.039,0.000
1742813784.569,2.930,-20.996,-166.016,37.598,0.000
1742813784.573,-0.977,-27.832,-159.180,18.555,0.000
1742813784.577,11.230,-29.297,-157.227,30.762,0.000
1742813784.581,25.879,-22.461,-152.832,50.293,0.000
1742813784.585,39.551,-18.066,-152.344,29.297,0.000
1742813784.589,33.203,-19.531,-151.855,23.438,0.000
1742813784.593,16.602,-12.207,-160.645,6.836,0.000
1742813784.597,-2.930,-13.184,-164.062,-9.277,0.000
1742813784.600,-7.812,-19.531,-158.203,4.883,0.000
1742813784.604,5.859,-15.625,0.000,17.090,0.000
1742813784.608,-12.695,-13.184,0.000,3.906,0.000
1742813784.612,-21.973,-14.648,0.000,-18.555,0.000
1742813784.616,-11.719,-14.160,0.000,-20.508,0.000
1742813784.620,-8.301,-17.578,0.000,-6.836,0.000
1742813784.624,-16.602,-23.438,0.000,0.977,0.000
1742813784.628,-36.621,-19.531,0.000,-10.742,0.000
1742813784.632,-46.387,-20.508,0.000,-24.902,0.000
1742813784.636,-41.504,-27.832,0.000,-40.039,0.000
1742813784.640,-27.344,-29.297,0.000,-24.414,0.000
1742813784.643,-21.484,-21.973,0.000,-9.277,0.000
1742813784.647,-22.461,-14.160,0.000,-17.090,0.000
1742813784.651,-26.367,-14.648,-136.719,-22.949,0.000
1742813784.655,-30.762,-10.742,-138.184,-31.250,0.000
1742813784.659,-21.973,-12.207,-131.348,-28.320,0.000
1742813784.663,-14.648,-21.973,-140.137,-12.695,0.000
1742813784.667,-21.484,-18.066,-148.438,-15.625,0.000
1742813784.671,-14.160,-13.672,-140.625,-29.785,0.000
1742813784.675,4.395,-16.113,-136.719,-27.832,0.000
1742813784.679,19.043,-12.207,-134.766,-18.555,0.000
1742813784.683,11.230,-9.277,-141.113,-6.836,0.000
1742813784.686,-3.418,-2.441,-143.555,-10.742,0.000
1742813784.690,-1.465,6.836,-144.531,-26.367,0.000
1742813784.694,-8.301,-4.395,-143.066,-7.324,0.000
1742813784.698,-11.719,-11.230,-134.277,8.301,0.000
1742813784.702,-1.465,-11.230,-137.695,14.160,0.000
1742813784.706,-1.953,-12.695,-140.137,15.137,0.000
1742813784.710,-13.184,-13.672,-141.602,-18.555,0.000
1742813784.714,-12.207,-13.184,-138.672,-25.391,0.000
1742813784.718,-5.859,-10.742,-133.789,-20.508,0.000
1742813784.722,-11.230,-10.254,-133.789,-43.945,0.000
1742813784.726,-24.414,-16.113,-137.207,-52.734,0.000
1742813784.729,-31.738,-17.578,-133.301,-42.969,0.000
1742813784.733,-26.367,-15.137,-124.023,-33.203,0.000
1742813784.737,-20.020,-21.484,-127.930,-18.555,0.000
1742813784.741,-11.230,-21.484,-135.742,-0.488,0.000
1742813784.745,-3.418,-8.789,-130.371,12.207,0.000
1742813784.749,-10.254,-1.465,-126.465,-1.953,0.000
1742813784.753,-21.484,-4.395,-130.371,-23.438,0.000
1742813784.757,-20.020,-4.883,-137.207,-22.949,0.000
1742813784.761,-15.625,-13.184,-141.602,-15.625,0.000
1742813784.765,-14.648,-22.949,-141.113,-5.859,0.000
1742813784.768,-5.859,-19.043,-134.277,7.324,0.000
1742813784.772,3.906,-13.672,-133.789,17.090,0.000
1742813784.776,4.883,-12.207,-134.277,35.645,0.000
1742813784.780,5.859,-12.695,-128.906,40.527,0.000
1742813784.784,-9.277,-13.184,-133.301,20.020,0.000
1742813784.788,-25.391,-13.184,-131.836,8.301,0.000
1742813784.792,-32.227,-20.508,-124.023,14.160,0.000
1742813784.796,-25.879,-25.391,-127.441,16.602,0.000
1742813784.800,-4.883,-23.438,-132.812,6.836,0.000
1742813784.804,7.324,-27.344,-137.695,20.508,0.000
1742813784.808,2.930,-30.762,-137.695,25.879,0.000
1742813784.811,-8.789,-28.809,-137.695,10.254,0.000
1742813784.815,-11.719,-23.926,-140.625,10.254,0.000
1742813784.819,-9.277,-19.043,-139.648,18.066,0.000
1742813784.823,-13.184,-16.602,-132.324,10.254,0.000
1742813784.827,-28.320,-19.531,-127.441,7.324,0.000
1742813784.831,-35.156,-19.531,-124.512,6.348,0.000
1742813784.835,-22.461,-19.043,-120.605,13.184,0.000
1742813784.839,-6.348,-16.113,-121.094,14.648,0.000
1742813784.843,2.441,-10.742,-125.977,12.695,0.000
1742813784.847,-4.395,-13.672,-132.324,16.602,0.000
1742813784.851,-28.809,-13.672,-131.836,-2.930,0.000
1742813784.854,-32.227,-10.742,-125.977,-12.695,0.000
1742813784.858,-24.414,-14.648,-126.465,-2.930,0.000
1742813784.862,-30.762,-24.414,-132.812,-4.883,0.000
1742813784.866,-41.504,-27.832,-132.812,-20.508,0.000
1742813784.870,-50.781,-21.484,-126.953,-38.086,0.000
1742813784.874,-54.688,-22.461,-135.254,-34.180,0.000
1742813784.878,-45.410,-20.996,-143.066,-12.695,0.000
1742813784.882,-42.480,-15.137,-136.719,-16.113,0.000
1742813784.886,-50.781,-13.184,-129.395,-38.574,0.000
1742813784.890,-55.176,-4.883,-125.977,-64.941,0.000
1742813784.893,-51.758,-1.953,-128.906,-77.637,0.000
1742813784.897,-44.434,-4.395,-123.047,-64.453,0.000
1742813784.901,-34.668,-9.766,-116.699,-43.457,0.000
1742813784.905,-34.180,-19.043,-124.023,-54.199,0.000
1742813784.909,-36.133,-23.926,-126.465,-57.129,0.000
1742813784.913,-31.738,-16.602,-123.047,-40.039,0.000
1742813784.917,-40.039,-7.812,-127.930,-55.176,0.000
1742813784.921,-37.598,-5.371,-138.184,-52.246,0.000
1742813784.925,-32.227,-9.277,-145.508,-32.227,0.000
1742813784.929,-46.875,-11.230,-148.926,-49.805,0.000
1742813784.933,-56.152,-15.137,-147.949,-64.941,0.000
1742813784.936,-53.711,-20.508,-145.020,-60.059,0.000
1742813784.940,-44.922,-22.461,-141.602,-64.453,0.000
1742813784.944,-35.645,-24.414,-139.648,-49.316,0.000
1742813784.948,-41.016,-26.367,-139.648,-33.691,0.000
1742813784.952,-42.480,-22.461,-144.043,-33.691,0.000
1742813784.956,-32.227,-15.625,-145.508,-31.738,0.000
1742813784.960,-23.438,-11.230,-144.043,-27.344,0.000
1742813784.964,-26.367,-10.254,-142.578,-30.762,0.000
1742813784.968,-46.875,-14.160,-138.184,-29.297,0.000
1742813784.971,-58.105,-17.578,-135.742,-27.344,0.000
1742813784.975,-50.781,-22.461,-133.301,-35.156,0.000
1742813784.979,-41.992,-28.320,-132.324,-37.598,0.000
1742813784.983,-35.645,-30.273,-132.324,-34.668,0.000
1742813784.987,-40.039,-29.297,-132.324,-36.133,0.000
1742813784.991,-44.922,-26.367,-135.254,-39.551,0.000
1742813784.995,-32.715,-26.855,-141.602,-26.855,0.000
1742813784.999,-20.508,-24.414,-150.391,-24.414,0.000
1742813785.003,-19.531,-17.090,-147.949,-48.828,0.000
1742813785.007,-19.531,-10.254,-142.578,-55.176,0.000
1742813785.011,-29.297,-10.742,-145.508,-44.434,0.000
1742813785.014,-37.598,-18.066,-148.926,-36.133,0.000
1742813785.018,-34.180,-25.879,-142.090,-39.551,0.000
1742813785.022,-31.738,-33.203,-139.648,-41.504,0.000
1742813785.026,-28.320,-29.785,-145.508,-31.738,0.000
1742813785.030,-16.113,-19.043,-144.531,-17.090,0.000
1742813785.034,-10.742,-13.184,-139.160,-4.395,0.000
1742813785.038,-11.719,-11.230,-137.207,-5.371,0.000
1742813785.042,-4.395,-12.695,-136.719,1.465,0.000
1742813785.046,-3.906,-13.184,-137.695,21.484,0.000
1742813785.050,-8.301,-15.625,-136.719,20.020,0.000
1742813785.054,-6.836,-16.602,-133.789,14.160,0.000
1742813785.057,-6.348,-12.695,-139.160,17.578,0.000
1742813785.061,0.000,-10.742,-139.160,16.602,0.000
1742813785.065,-3.906,-7.324,-134.277,4.395,0.000
1742813785.069,-32.227,-12.695,-143.066,-8.789,0.000
1742813785.073,-32.715,-17.578,-149.414,-17.090,0.000
1742813785.077,-21.484,-12.695,-147.461,-14.160,0.000
1742813785.081,-30.273,-9.277,-144.043,-25.391,0.000
1742813785.085,-33.691,-9.766,-145.508,-31.250,0.000
1742813785.089,-39.551,-13.672,-145.508,-35.645,0.000
1742813785.093,-43.457,-14.160,-141.113,-39.062,0.000
1742813785.097,-39.062,-15.137,-138.672,-41.992,0.000
1742813785.100,-40.527,-12.695,-140.137,-45.410,0.000
1742813785.104,-42.969,-9.277,-141.602,-49.805,0.000
1742813785.108,-52.246,-12.695,-138.672,-70.312,0.000
1742813785.112,-66.406,-17.578,-135.254,-79.102,0.000
1742813785.116,-72.266,-25.391,-130.859,-80.566,0.000
1742813785.120,-60.547,-24.414,-122.559,-69.824,0.000
1742813785.124,-53.711,-22.949,-117.188,-61.035,0.000
1742813785.128,-55.176,-25.391,-121.582,-78.613,0.000
1742813785.132,-51.758,-20.020,-130.859,-79.590,0.000
1742813785.136,-41.504,-14.648,-133.301,-68.359,0.000
1742813785.140,-34.668,-14.648,-128.418,-56.641,0.000
1742813785.143,-36.621,-19.531,-125.488,-41.016,0.000
1742813785.147,-35.156,-27.832,-128.418,-34.668,0.000
1742813785.151,-37.109,-31.250,-127.930,-36.133,0.000
1742813785.155,-35.645,-26.855,-124.512,-41.016,0.000
1742813785.159,-27.832,-29.297,-128.906,-43.945,0.000
1742813785.163,-21.484,-29.785,-133.301,-35.645,0.000
1742813785.167,-20.508,-20.996,-136.719,-11.230,0.000
1742813785.171,-23.926,-13.672,-139.648,-19.531,0.000
1742813785.175,-23.926,-10.254,-143.555,-19.531,0.000
1742813785.179,-13.184,-12.207,-139.160,-8.789,0.000
1742813785.183,-19.531,-12.695,-137.695,-14.648,0.000
1742813785.186,-35.156,-16.113,-139.160,-15.137,0.000
1742813785.190,-35.156,-21.973,-134.766,-32.715,0.000
1742813785.194,-33.691,-20.508,-136.719,-35.645,0.000
1742813785.198,-27.832,-20.020,-132.324,-33.203,0.000
1742813785.202,-26.367,-20.020,-130.371,-40.039,0.000
1742813785.206,-38.086,-19.043,-140.625,-45.898,0.000
1742813785.210,-47.363,-20.020,-149.414,-55.664,0.000
1742813785.214,-39.551,-21.484,-142.090,-49.316,0.000
1742813785.218,-33.691,-25.391,-129.395,-47.363,0.000
1742813785.222,-26.367,-22.461,-124.512,-41.016,0.000
1742813785.225,-33.691,-15.625,-120.605,-22.949,0.000
1742813785.229,-61.035,-21.484,-126.953,-26.367,0.000
1742813785.233,-58.594,-24.414,-128.906,-28.809,0.000
1742813785.237,-44.922,-20.996,-131.348,-13.184,0.000
1742813785.241,-41.992,-20.996,-135.742,-7.324,0.000
1742813785.245,-37.598,-21.973,-128.418,-15.137,0.000
1742813785.249,-37.109,-20.996,-128.906,-9.766,0.000
1742813785.253,-37.598,-20.508,-132.812,-3.906,0.000
1742813785.257,-19.043,-20.020,-123.535,-10.742,0.000
1742813785.261,-8.789,-25.391,-121.582,-2.441,0.000
1742813785.265,-17.090,-32.715,-131.348,8.789,0.000
1742813785.268,-20.996,-29.297,-135.254,-1.953,0.000
1742813785.272,-20.508,-19.043,-132.324,-29.785,0.000
1742813785.276,-25.879,-15.137,-133.301,-44.922,0.000
1742813785.280,-13.184,-15.137,-137.207,-32.227,0.000
1742813785.284,-2.441,-8.789,-134.277,-24.902,0.000
1742813785.288,-15.625,-10.742,-132.324,-32.715,0.000
1742813785.292,-31.250,-20.508,-131.348,-36.621,0.000
1742813785.296,-39.551,-22.949,-133.301,-36.133,0.000
1742813785.300,-25.391,-18.555,-136.719,-38.574,0.000
1742813785.303,-10.742,-13.184,-136.230,-31.250,0.000
1742813785.307,-25.391,-16.113,-135.742,-35.156,0.000
1742813785.311,-33.203,-16.602,-132.812,-38.086,0.000
1742813785.315,-28.809,-11.230,-132.324,-52.246,0.000
1742813785.319,-27.832,-12.207,-128.418,-54.199,0.000
1742813785.323,-26.855,-13.184,-127.930,-36.621,0.000
1742813785.327,-35.156,-14.160,-128.418,-36.133,0.000
1742813785.331,-49.805,-14.160,-121.094,-38.574,0.000
1742813785.335,-58.105,-19.531,-120.605,-43.457,0.000
1742813785.339,-55.664,-19.531,-122.559,-38.086,0.000
1742813785.343,-49.316,-20.996,-125.000,-32.227,0.000
1742813785.346,-44.922,-24.414,-125.488,-46.387,0.000
1742813785.350,-52.246,-19.043,-126.953,-56.641,0.000
1742813785.354,-49.316,-22.461,-129.395,-38.086,0.000
1742813785.358,-41.504,-27.832,-129.883,-31.250,0.000
1742813785.362,-37.598,-26.855,-131.836,-34.668,0.000
1742813785.366,-32.227,-25.879,-128.906,-31.738,0.000
1742813785.370,-28.320,-25.879,-129.883,-41.992,0.000
1742813785.374,-32.227,-23.926,-134.766,-61.523,0.000
1742813785.378,-31.738,-20.508,-128.418,-61.523,0.000
1742813785.382,-32.715,-20.020,-132.812,-44.922,0.000
1742813785.386,-38.574,-23.438,-144.531,-52.246,0.000
1742813785.389,-41.016,-22.461,-152.344,-62.012,0.000
1742813785.393,-33.691,-13.184,-148.926,-57.617,0.000
1742813785.397,-23.926,-10.254,-141.113,-59.570,0.000
1742813785.401,-18.066,-9.277,-142.578,-57.617,0.000
1742813785.405,-16.113,-8.301,-140.137,-47.363,0.000
1742813785.409,-26.367,-13.184,-137.695,-44.434,0.000
1742813785.413,-27.344,-11.719,-136.719,-59.570,0.000
1742813785.417,-32.715,-15.137,-136.230,-63.965,0.000
1742813785.421,-45.898,-22.461,-144.531,-66.406,0.000
1742813785.425,-48.828,-22.949,-147.461,-83.984,0.000
1742813785.429,-48.340,-27.832,-142.578,-81.055,0.000
1742813785.432,-37.109,-27.832,-142.578,-73.730,0.000
1742813785.436,-32.227,-19.043,-139.160,-72.754,0.000
1742813785.440,-37.109,-17.090,-139.160,-64.941,0.000
1742813785.444,-43.945,-20.996,-141.113,-55.664,0.000
1742813785.448,-53.711,-26.367,-147.461,-57.129,0.000
1742813785.452,-52.734,-26.855,-147.949,-61.523,0.000
1742813785.456,-42.480,-20.508,-140.137,-64.941,0.000
1742813785.460,-30.273,-20.020,-139.648,-56.152,0.000
1742813785.464,-12.695,-20.996,-136.719,-25.391,0.000
1742813785.468,-8.301,-22.949,-129.883,2.930,0.000
1742813785.472,-12.695,-23.926,-125.977,-5.859,0.000
1742813785.475,-4.395,-17.578,-124.023,-0.488,0.000
1742813785.479,3.906,-13.672,-129.883,8.789,0.000
1742813785.483,4.395,-7.812,-133.789,4.883,0.000
1742813785.487,0.488,-1.465,-131.836,20.020,0.000
1742813785.491,-13.184,-2.930,-135.742,14.160,0.000
1742813785.495,0.000,-7.812,-137.207,-9.766,0.000
1742813785.499,0.000,-14.160,-134.766,5.371,0.000
1742813785.503,0.000,-18.066,-135.254,17.578,0.000
1742813785.507,0.000,-19.531,-129.883,-8.301,0.000
1742813785.511,0.000,-20.508,-122.559,-19.531,0.000
1742813785.515,0.000,-26.367,-122.559,-0.977,0.000
1742813785.518,0.000,-26.367,-126.953,-2.930,0.000
1742813785.522,0.000,-18.555,-128.906,-10.742,0.000
1742813785.526,0.000,-14.160,-125.977,1.465,0.000
1742813785.530,0.000,-17.578,-132.812,-18.555,0.000
1742813785.534,0.000,-20.020,-138.672,-29.297,0.000
1742813785.538,0.000,-18.066,-136.230,-26.855,0.000
1742813785.542,-42.969,-20.508,-129.883,-23.438,0.000
1742813785.546,-47.852,-20.996,-123.535,-13.672,0.000
1742813785.550,-51.758,-27.344,-128.906,-20.020,0.000
1742813785.554,-50.781,-29.297,-132.812,-33.203,0.000
1742813785.558,-55.664,-27.832,-134.766,-50.781,0.000
1742813785.561,-61.035,-28.320,-134.277,-42.969,0.000
1742813785.565,-55.664,-21.484,-127.930,-20.996,0.000
1742813785.569,-53.223,-22.461,-128.418,-28.809,0.000
1742813785.573,-42.969,-23.926,-131.348,-43.945,0.000
1742813785.577,-40.039,-22.949,-133.301,-62.012,0.000
1742813785.581,-47.363,-25.879,-143.066,-70.312,0.000
1742813785.585,-41.992,-23.438,-143.066,-41.992,0.000
1742813785.589,-41.016,-20.996,-137.695,-45.410,0.000
1742813785.593,-45.410,-23.926,-134.277,-65.430,0.000
1742813785.597,-39.062,-23.438,-125.488,-48.828,0.000
1742813785.600,-27.832,-25.391,-127.930,-36.621,0.000
1742813785.604,-26.855,-28.320,-133.301,-33.691,0.000
1742813785.608,-35.645,-31.250,-132.324,-39.551,0.000
1742813785.612,-42.969,-29.297,-136.230,-50.781,0.000
1742813785.616,-34.668,-20.020,-138.184,-53.223,0.000
1742813785.620,-29.297,-19.043,-134.766,-52.246,0.000
1742813785.624,-33.203,-20.508,-141.113,-63.477,0.000
1742813785.628,-39.551,-21.484,-142.578,-70.801,0.000
1742813785.632,-48.828,-16.602,-133.789,-61.035,0.000
1742813785.636,-44.922,-13.184,-132.324,-63.477,0.000
1742813785.640,-48.340,-19.531,-139.160,-66.895,0.000
1742813785.643,-55.664,-18.066,-140.137,-70.801,0.000
1742813785.647,-56.152,-20.508,-132.324,-70.801,0.000
1742813785.651,-59.082,-26.367,-129.883,-60.547,0.000
1742813785.655,-53.223,-21.973,-123.535,-63.477,0.000
1742813785.659,-40.039,-17.090,-116.211,-53.711,0.000
1742813785.663,-47.852,-19.043,-123.047,-51.270,0.000
1742813785.667,-62.012,-22.949,-128.418,-56.641,0.000
1742813785.671,-58.105,-28.320,-127.930,-50.781,0.000
1742813785.675,-45.410,-27.344,-125.488,-56.152,0.000
1742813785.679,-47.852,-23.438,-124.023,-62.012,0.000
