timestamps,TP9,AF7,AF8,TP10,Right AUX
1742813712.104,-23.438,-12.207,-68.359,-42.480,0.000
1742813712.108,-30.273,-20.020,-65.430,-51.758,0.000
1742813712.112,-29.785,-20.508,-59.082,-55.176,0.000
1742813712.116,-36.621,-23.438,-57.129,-49.805,0.000
1742813712.120,-42.969,-31.738,-60.059,-39.551,0.000
1742813712.124,-55.176,-33.691,-60.547,-32.715,0.000
1742813712.128,-58.105,-32.227,-62.988,-44.434,0.000
1742813712.132,-46.387,-32.227,-58.105,-40.039,0.000
1742813712.135,-36.621,-29.785,-47.852,-19.043,0.000
1742813712.139,-36.621,-30.273,-50.781,-18.555,0.000
1742813712.143,-41.016,-32.227,-58.594,-26.855,0.000
1742813712.147,-42.969,-34.180,-63.965,-28.809,0.000
1742813712.151,-36.133,-30.762,-61.523,-30.273,0.000
1742813712.155,-31.250,-22.461,-66.895,-27.344,0.000
1742813712.159,-27.344,-18.066,-65.430,-10.254,0.000
1742813712.163,-22.461,-12.207,-63.965,-12.207,0.000
1742813712.167,-22.949,-6.836,-75.684,-19.531,0.000
1742813712.171,-5.859,-3.906,-78.613,-13.672,0.000
1742813712.175,20.996,3.418,-69.824,0.488,0.000
1742813712.178,22.461,3.418,-70.801,-6.348,0.000
1742813712.182,7.324,2.930,-71.777,-31.250,0.000
1742813712.186,3.418,4.883,-73.242,-58.594,0.000
1742813712.190,-3.906,-1.953,-75.684,-72.266,0.000
1742813712.194,-8.789,-6.348,-68.359,-67.383,0.000
1742813712.198,-8.789,-10.254,-64.941,-62.988,0.000
1742813712.202,-12.207,-8.789,-64.453,-54.688,0.000
1742813712.206,-22.461,-8.789,-58.105,-49.805,0.000
1742813712.210,-23.926,-12.207,-47.363,-34.668,0.000
1742813712.214,-20.020,-16.113,-49.805,-14.648,0.000
1742813712.218,-31.250,-25.879,-57.129,-5.371,0.000
1742813712.221,-41.504,-30.273,-54.688,-11.719,0.000
1742813712.225,-45.410,-28.809,-45.898,-18.555,0.000
1742813712.229,-54.199,-33.203,-50.781,-24.902,0.000
1742813712.233,-60.547,-38.086,-64.453,-22.461,0.000
1742813712.237,-62.988,-44.434,-68.848,-20.508,0.000
1742813712.241,-70.312,-47.363,-72.754,-28.809,0.000
1742813712.245,-67.383,-41.016,-76.660,-28.320,0.000
1742813712.249,-56.641,-41.504,-80.566,-26.855,0.000
1742813712.253,-41.504,-46.387,-84.961,-18.555,0.000
1742813712.257,-20.996,-41.992,-83.496,-3.418,0.000
1742813712.260,-10.254,-40.527,-87.891,-5.859,0.000
1742813712.264,-13.672,-41.016,-105.469,-32.227,0.000
1742813712.268,-7.324,-33.691,-102.539,-40.039,0.000
1742813712.272,0.488,-33.691,-92.285,-27.344,0.000
1742813712.276,0.488,-35.156,-90.332,-22.949,0.000
1742813712.280,2.930,-28.320,-87.402,-15.137,0.000
1742813712.284,-3.906,-26.855,-79.590,-26.855,0.000
1742813712.288,-18.555,-37.598,-84.961,-52.246,0.000
1742813712.292,-30.273,-41.016,-89.355,-49.805,0.000
1742813712.296,-28.809,-41.504,-82.520,-43.945,0.000
1742813712.300,-29.297,-37.598,-79.102,-56.152,0.000
1742813712.303,-39.551,-31.738,-81.055,-61.523,0.000
1742813712.307,-43.945,-31.738,-85.938,-69.824,0.000
1742813712.311,-48.828,-31.250,-84.961,-72.754,0.000
1742813712.315,-55.176,-33.203,-73.242,-56.152,0.000
1742813712.319,-57.129,-34.180,-70.312,-56.152,0.000
1742813712.323,-68.359,-35.156,-82.031,-64.453,0.000
1742813712.327,-77.148,-34.180,-81.543,-67.871,0.000
1742813712.331,-71.289,-36.133,-86.426,-63.965,0.000
1742813712.335,-62.500,-41.504,-94.238,-47.852,0.000
1742813712.339,-57.617,-43.457,-90.820,-49.316,0.000
1742813712.343,-53.711,-44.434,-89.355,-54.199,0.000
1742813712.346,-48.340,-41.992,-88.867,-56.152,0.000
1742813712.350,-48.340,-43.945,-90.820,-37.598,0.000
1742813712.354,-45.898,-42.969,-86.426,-21.973,0.000
1742813712.358,-35.645,-35.645,-82.520,-17.578,0.000
1742813712.362,-34.668,-35.645,-90.820,-19.531,0.000
1742813712.366,-40.527,-38.086,-100.098,-29.785,0.000
1742813712.370,-43.945,-36.621,-97.656,-37.109,0.000
1742813712.374,-38.574,-32.715,-84.961,-30.762,0.000
1742813712.378,-28.320,-30.273,-77.637,-23.438,0.000
1742813712.382,-21.484,-29.785,-84.961,-25.391,0.000
1742813712.385,-28.320,-38.086,-90.332,-29.297,0.000
1742813712.389,-41.016,-44.922,-87.402,-41.016,0.000
1742813712.393,-40.527,-39.062,-84.473,-33.691,0.000
1742813712.397,-36.621,-40.039,-83.984,-18.555,0.000
1742813712.401,-31.250,-40.527,-85.449,-29.297,0.000
1742813712.405,-28.809,-30.273,-82.031,-30.762,0.000
1742813712.409,-31.250,-24.902,-79.590,-30.273,0.000
1742813712.413,-27.832,-29.297,-83.008,-26.855,0.000
1742813712.417,-22.461,-35.156,-79.102,-12.695,0.000
1742813712.421,-25.879,-33.691,-70.312,-19.043,0.000
1742813712.425,-31.738,-29.297,-81.543,-36.133,0.000
1742813712.428,-31.738,-26.367,-83.984,-38.086,0.000
1742813712.432,-32.715,-28.320,-79.102,-29.297,0.000
1742813712.436,-35.645,-32.715,-83.008,-27.344,0.000
1742813712.440,-33.203,-36.621,-84.473,-32.227,0.000
1742813712.444,-34.668,-38.574,-85.449,-39.551,0.000
1742813712.448,-31.738,-35.645,-83.984,-41.992,0.000
1742813712.452,-26.367,-39.062,-82.031,-47.363,0.000
1742813712.456,-17.578,-41.016,-85.449,-43.457,0.000
1742813712.460,-10.742,-37.109,-88.867,-33.691,0.000
1742813712.464,-16.113,-30.762,-82.031,-32.715,0.000
1742813712.467,-30.273,-31.738,-80.078,-40.039,0.000
1742813712.471,-48.828,-38.574,-85.938,-45.898,0.000
1742813712.475,-54.199,-38.574,-82.031,-25.391,0.000
1742813712.479,-52.734,-34.180,-80.566,-25.879,0.000
1742813712.483,-52.734,-37.598,-80.566,-43.457,0.000
1742813712.487,-56.152,-41.992,-81.055,-50.781,0.000
1742813712.491,-56.641,-41.504,-84.961,-52.246,0.000
1742813712.495,-46.387,-39.062,-88.867,-38.574,0.000
1742813712.499,-37.109,-32.715,-86.914,-29.297,0.000
1742813712.503,-44.434,-37.109,-92.773,-32.227,0.000
1742813712.507,-47.363,-40.527,-93.750,-46.387,0.000
1742813712.510,-44.434,-41.016,-85.449,-58.594,0.000
1742813712.514,-47.363,-46.875,-90.820,-46.875,0.000
1742813712.518,-40.527,-45.410,-87.891,-37.598,0.000
1742813712.522,-40.527,-45.898,-83.008,-40.039,0.000
1742813712.526,-48.828,-47.363,-83.984,-48.828,0.000
1742813712.530,-38.086,-41.504,-77.148,-41.992,0.000
1742813712.534,-29.785,-37.109,-75.195,-23.438,0.000
1742813712.538,-38.574,-36.133,-76.660,-15.625,0.000
1742813712.542,-42.969,-34.668,-72.754,-26.367,0.000
1742813712.546,-40.527,-36.133,-83.008,-38.086,0.000
1742813712.549,-42.480,-46.387,-91.797,-36.621,0.000
1742813712.553,-37.598,-51.758,-80.566,-34.180,0.000
1742813712.557,-31.250,-50.293,-72.266,-19.531,0.000
1742813712.561,-33.691,-48.340,-83.008,-14.648,0.000
1742813712.565,-30.273,-45.410,-83.008,-35.156,0.000
1742813712.569,-26.855,-40.527,-69.336,-43.457,0.000
1742813712.573,-29.297,-38.086,-72.754,-31.250,0.000
1742813712.577,-28.809,-37.109,-80.078,-26.367,0.000
1742813712.581,-28.320,-34.180,-77.637,-25.391,0.000
1742813712.585,-29.785,-32.715,-80.078,-35.645,0.000
1742813712.589,-27.344,-35.156,-81.055,-37.109,0.000
1742813712.592,-34.668,-41.992,-81.543,-34.180,0.000
1742813712.596,-27.344,-46.387,-80.566,-29.297,0.000
1742813712.600,-15.137,-41.504,-74.219,-19.531,0.000
1742813712.604,-39.062,-44.434,-84.961,-38.086,0.000
1742813712.608,-46.875,-50.293,-90.820,-40.527,0.000
1742813712.612,-37.109,-47.852,-83.008,-32.715,0.000
1742813712.616,-34.180,-45.410,-82.031,-38.086,0.000
1742813712.620,-31.738,-41.504,-82.031,-26.367,0.000
1742813712.624,-30.273,-41.504,-83.496,-23.926,0.000
1742813712.628,-27.832,-37.109,-82.520,-36.621,0.000
1742813712.632,-24.414,-28.809,-81.543,-36.621,0.000
1742813712.635,-27.832,-30.273,-80.078,-24.414,0.000
1742813712.639,-33.691,-37.109,-79.590,-22.949,0.000
1742813712.643,-36.621,-39.062,-82.520,-41.016,0.000
1742813712.647,-40.039,-41.504,-87.402,-56.152,0.000
1742813712.651,-32.227,-45.410,-89.844,-55.664,0.000
1742813712.655,-23.438,-40.039,-87.402,-38.574,0.000
1742813712.659,-29.297,-37.109,-78.125,-29.297,0.000
1742813712.663,-28.320,-35.156,-79.102,-34.668,0.000
1742813712.667,-30.762,-31.738,-79.102,-36.133,0.000
1742813712.671,-31.738,-29.785,-71.777,-36.133,0.000
1742813712.674,-25.391,-27.344,-69.336,-30.762,0.000
1742813712.678,-28.809,-20.020,-71.777,-19.531,0.000
1742813712.682,-23.926,-12.695,-68.848,-14.648,0.000
1742813712.686,-20.020,-10.742,-69.824,-21.973,0.000
1742813712.690,-24.414,-16.602,-74.219,-38.086,0.000
1742813712.694,-9.766,-15.137,-66.406,-30.762,0.000
1742813712.698,-6.836,-14.648,-68.848,-16.113,0.000
1742813712.702,-14.648,-19.531,-67.871,-19.531,0.000
1742813712.706,-14.160,-17.090,-60.547,-31.250,0.000
1742813712.710,-20.508,-19.531,-60.547,-39.062,0.000
1742813712.714,-28.809,-23.438,-59.570,-33.691,0.000
1742813712.717,-25.879,-25.879,-64.453,-22.461,0.000
1742813712.721,-20.996,-28.320,-67.871,-21.973,0.000
1742813712.725,-25.879,-31.250,-74.707,-36.621,0.000
1742813712.729,-34.668,-32.227,-79.590,-34.180,0.000
1742813712.733,-31.738,-29.785,-77.637,-22.461,0.000
1742813712.737,-22.949,-27.832,-73.730,-19.531,0.000
1742813712.741,-27.344,-27.832,-74.707,-21.973,0.000
1742813712.745,-35.645,-22.461,-77.148,-23.926,0.000
1742813712.749,-42.969,-25.879,-73.242,-30.273,0.000
1742813712.753,-41.504,-33.691,-73.242,-35.645,0.000
1742813712.757,-41.504,-33.691,-77.148,-32.227,0.000
1742813712.760,-36.133,-29.297,-77.148,-24.902,0.000
1742813712.764,-47.852,-29.297,-79.590,-39.551,0.000
1742813712.768,-54.199,-33.203,-80.078,-43.457,0.000
1742813712.772,-40.039,-32.227,-72.266,-38.086,0.000
1742813712.776,-33.691,-28.809,-71.777,-36.621,0.000
1742813712.780,-39.551,-32.715,-76.172,-22.949,0.000
1742813712.784,-45.898,-33.691,-71.777,-24.414,0.000
1742813712.788,-41.992,-29.297,-76.660,-24.414,0.000
1742813712.792,-32.715,-29.785,-81.543,-24.902,0.000
1742813712.796,-32.715,-26.855,-78.125,-29.297,0.000
1742813712.799,-19.531,-20.996,-77.637,-13.672,0.000
1742813712.803,-14.648,-16.602,-68.359,-9.277,0.000
1742813712.807,-20.996,-20.020,-62.012,-23.926,0.000
1742813712.811,-13.184,-19.531,-56.641,-21.484,0.000
1742813712.815,-6.836,-15.625,-58.594,-11.230,0.000
1742813712.819,-4.395,-15.137,-55.664,-5.859,0.000
1742813712.823,-14.648,-17.578,-59.082,-16.602,0.000
1742813712.827,-29.785,-22.461,-76.660,-37.598,0.000
1742813712.831,-44.434,-31.250,-93.262,-50.781,0.000
1742813712.835,-46.875,-45.410,-102.051,-50.293,0.000
1742813712.839,-41.016,-44.434,-90.332,-49.805,0.000
1742813712.842,-42.969,-37.598,-85.449,-48.340,0.000
1742813712.846,-48.828,-40.039,-89.844,-50.781,0.000
1742813712.850,-51.270,-38.086,-83.008,-53.223,0.000
1742813712.854,-52.734,-42.480,-81.055,-40.039,0.000
1742813712.858,-44.922,-45.410,-77.148,-24.902,0.000
1742813712.862,-36.621,-36.133,-71.777,-25.391,0.000
1742813712.866,-36.621,-32.227,-77.637,-40.527,0.000
1742813712.870,-32.715,-35.156,-83.496,-47.363,0.000
1742813712.874,-32.715,-36.133,-83.496,-44.922,0.000
1742813712.878,-31.738,-29.297,-78.125,-38.086,0.000
1742813712.881,-20.508,-21.973,-67.871,-37.598,0.000
1742813712.885,-27.344,-22.949,-62.012,-53.711,0.000
1742813712.889,-34.668,-23.926,-62.988,-48.340,0.000
1742813712.893,-30.273,-26.855,-61.035,-38.574,0.000
1742813712.897,-34.668,-27.344,-62.500,-40.527,0.000
1742813712.901,-39.062,-28.809,-63.477,-37.109,0.000
1742813712.905,-47.363,-34.668,-70.312,-42.969,0.000
1742813712.909,-49.805,-29.297,-73.730,-44.922,0.000
1742813712.913,-44.434,-28.809,-73.242,-30.273,0.000
1742813712.917,-38.574,-37.109,-79.102,-14.648,0.000
1742813712.921,-29.785,-31.738,-79.590,-3.906,0.000
1742813712.924,-23.926,-19.043,-70.801,-5.859,0.000
1742813712.928,-26.367,-20.996,-68.359,-13.672,0.000
1742813712.932,-28.809,-30.273,-70.801,-19.043,0.000
1742813712.936,-29.297,-34.180,-76.660,-17.578,0.000
1742813712.940,-33.691,-35.645,-83.496,-16.113,0.000
1742813712.944,-41.504,-39.551,-87.402,-30.762,0.000
1742813712.948,-53.711,-41.016,-90.820,-40.527,0.000
1742813712.952,-55.664,-38.086,-94.238,-51.758,0.000
1742813712.956,-40.527,-41.992,-94.238,-53.711,0.000
1742813712.960,-32.715,-37.109,-91.797,-37.598,0.000
1742813712.964,-37.109,-34.180,-89.844,-39.551,0.000
1742813712.967,-42.480,-39.062,-90.820,-54.199,0.000
1742813712.971,-36.133,-30.273,-81.543,-48.340,0.000
1742813712.975,-34.668,-32.227,-78.125,-45.410,0.000
1742813712.979,-35.156,-37.109,-72.754,-41.992,0.000
1742813712.983,-34.668,-31.250,-70.801,-32.715,0.000
1742813712.987,-45.410,-32.715,-74.707,-46.387,0.000
1742813712.991,-44.434,-27.832,-62.988,-52.734,0.000
1742813712.995,-41.016,-22.461,-60.059,-41.992,0.000
1742813712.999,-49.316,-28.809,-65.918,-42.969,0.000
1742813713.003,-55.176,-31.250,-66.895,-49.316,0.000
1742813713.006,-61.523,-23.926,-64.941,-57.129,0.000
1742813713.010,-66.406,-24.902,-67.871,-59.082,0.000
1742813713.014,-58.105,-25.879,-72.266,-38.086,0.000
1742813713.018,-47.852,-22.461,-66.406,-26.855,0.000
1742813713.022,-43.457,-20.996,-63.477,-24.902,0.000
1742813713.026,-35.645,-18.066,-63.477,-14.648,0.000
1742813713.030,-26.367,-17.090,-59.082,-12.695,0.000
1742813713.034,-13.184,-14.160,-53.223,-10.742,0.000
1742813713.038,-5.371,-12.695,-52.734,0.977,0.000
1742813713.042,-6.836,-17.578,-57.129,7.324,0.000
1742813713.046,-7.812,-13.184,-54.199,-6.348,0.000
1742813713.049,-7.324,-10.742,-59.082,-21.484,0.000
1742813713.053,-7.812,-14.648,-65.918,-22.949,0.000
1742813713.057,-13.184,-19.043,-66.406,-16.602,0.000
1742813713.061,-9.766,-13.184,-69.824,-5.371,0.000
1742813713.065,-12.695,-10.742,-69.336,-17.578,0.000
1742813713.069,-21.973,-16.113,-70.312,-37.598,0.000
1742813713.073,-16.113,-11.719,-69.336,-26.367,0.000
1742813713.077,-21.973,-14.648,-61.035,-19.531,0.000
1742813713.081,-26.855,-15.625,-60.547,-19.531,0.000
1742813713.085,-22.461,-15.137,-62.012,-18.066,0.000
1742813713.089,-27.344,-16.602,-60.059,-32.715,0.000
1742813713.092,-30.762,-12.207,-61.523,-35.645,0.000
1742813713.096,-23.926,-14.648,-59.082,-21.973,0.000
1742813713.100,-12.695,-15.625,-58.105,-5.371,0.000
1742813713.104,-11.230,-6.348,-60.059,1.465,0.000
1742813713.108,-10.742,-6.836,-60.059,-7.324,0.000
1742813713.112,-4.883,-7.324,-61.523,-9.766,0.000
1742813713.116,-10.254,-10.742,-69.336,-1.465,0.000
1742813713.120,-13.184,-13.672,-71.289,-0.977,0.000
1742813713.124,-17.578,-13.184,-67.871,-5.859,0.000
1742813713.128,-23.926,-20.020,-73.730,-24.414,0.000
1742813713.131,-26.367,-31.738,-84.473,-37.598,0.000
1742813713.135,-21.484,-37.109,-87.402,-22.949,0.000
1742813713.139,-17.578,-35.156,-79.590,-15.137,0.000
1742813713.143,-29.297,-34.180,-83.496,-22.461,0.000
1742813713.147,-41.992,-37.598,-96.191,-40.527,0.000
1742813713.151,-37.109,-39.062,-96.680,-46.387,0.000
1742813713.155,-38.086,-42.969,-98.145,-44.434,0.000
1742813713.159,-55.176,-45.410,-96.191,-42.969,0.000
1742813713.163,-60.059,-45.410,-98.633,-39.062,0.000
1742813713.167,-60.547,-42.969,-92.773,-48.340,0.000
1742813713.171,-62.988,-42.480,-83.496,-59.082,0.000
1742813713.174,-61.523,-44.434,-89.844,-52.246,0.000
1742813713.178,-59.082,-41.992,-92.285,-46.875,0.000
1742813713.182,-65.430,-41.504,-90.332,-62.500,0.000
1742813713.186,-68.359,-40.527,-89.844,-69.824,0.000
1742813713.190,-62.500,-36.621,-87.402,-62.012,0.000
1742813713.194,-47.852,-33.691,-73.730,-44.922,0.000
1742813713.198,-36.621,-30.273,-62.988,-21.973,0.000
1742813713.202,-42.969,-28.320,-68.359,-28.809,0.000
1742813713.206,-38.574,-23.926,-71.777,-42.969,0.000
1742813713.210,-37.109,-21.484,-70.801,-34.668,0.000
1742813713.213,-34.668,-18.066,-69.336,-26.855,0.000
1742813713.217,-30.762,-15.137,-71.777,-22.949,0.000
1742813713.221,-31.738,-20.996,-78.125,-26.855,0.000
1742813713.225,-26.855,-26.367,-76.660,-23.438,0.000
1742813713.229,-22.949,-26.855,-67.871,-18.555,0.000
1742813713.233,-23.438,-25.879,-67.871,-17.090,0.000
1742813713.237,-28.809,-34.668,-78.613,-3.418,0.000
1742813713.241,-30.273,-41.504,-85.938,-2.930,0.000
1742813713.245,-29.785,-41.504,-83.496,-17.578,0.000
1742813713.249,-20.996,-40.039,-89.355,-33.691,0.000
1742813713.253,-5.859,-30.762,-90.332,-27.344,0.000
1742813713.256,1.465,-22.949,-77.148,-8.789,0.000
1742813713.260,7.324,-22.461,-71.777,-14.160,0.000
1742813713.264,1.953,-24.902,-72.754,-39.062,0.000
1742813713.268,-6.348,-23.926,-69.824,-51.270,0.000
1742813713.272,-1.465,-27.832,-66.895,-39.551,0.000
1742813713.276,0.000,-33.691,-72.754,-31.738,0.000
1742813713.280,0.000,-16.602,-73.242,-24.414,0.000
1742813713.284,0.000,-8.789,-74.707,-21.973,0.000
1742813713.288,0.000,-16.602,-79.102,-34.668,0.000
1742813713.292,0.000,-23.926,-74.219,-28.809,0.000
1742813713.296,0.000,-29.297,-73.242,-1.465,0.000
1742813713.299,0.000,-23.438,-66.895,8.789,0.000
1742813713.303,0.000,-17.578,-61.035,3.418,0.000
1742813713.307,0.000,-16.113,-62.500,-13.184,0.000
1742813713.311,0.000,-12.695,-62.500,-14.160,0.000
1742813713.315,0.000,-4.883,-61.035,2.441,0.000
1742813713.319,0.000,0.488,-52.246,10.254,0.000
1742813713.323,1.465,-2.441,-50.293,6.348,0.000
1742813713.327,-3.418,-10.742,-54.688,-11.230,0.000
1742813713.331,4.395,-6.836,-48.828,-9.766,0.000
1742813713.335,17.578,-3.418,-36.133,12.207,0.000
1742813713.338,27.344,-6.348,-35.156,22.461,0.000
1742813713.342,18.066,-7.324,-46.875,17.090,0.000
1742813713.346,0.488,-4.395,-53.711,8.789,0.000
1742813713.350,-7.324,-6.836,-55.176,-8.301,0.000
1742813713.354,-25.391,-20.020,-70.801,-28.320,0.000
1742813713.358,-29.785,-31.250,-85.938,-31.250,0.000
1742813713.362,-27.832,-31.250,-77.637,-39.062,0.000
1742813713.366,-38.574,-29.297,-70.801,-55.176,0.000
1742813713.370,-40.039,-30.762,-77.637,-51.758,0.000
1742813713.374,-34.180,-30.762,-78.613,-44.434,0.000
1742813713.378,-28.809,-23.438,-68.848,-32.227,0.000
1742813713.381,-31.250,-16.113,-71.289,-34.180,0.000
1742813713.385,-35.156,-14.160,-76.660,-41.992,0.000
1742813713.389,-33.691,-20.020,-76.660,-40.039,0.000
1742813713.393,-35.156,-28.809,-77.637,-32.715,0.000
1742813713.397,-33.203,-34.668,-72.754,-24.902,0.000
1742813713.401,-35.156,-37.598,-74.707,-33.691,0.000
1742813713.405,-29.297,-29.297,-79.590,-40.039,0.000
1742813713.409,-27.344,-20.996,-72.266,-49.316,0.000
1742813713.413,-28.809,-21.484,-68.359,-44.922,0.000
1742813713.417,-19.531,-23.438,-69.824,-35.645,0.000
1742813713.421,-21.484,-23.438,-69.336,-32.227,0.000
1742813713.424,-20.508,-22.461,-65.430,-26.855,0.000
1742813713.428,-20.508,-21.973,-62.988,-33.691,0.000
1742813713.432,-18.066,-19.043,-59.082,-23.926,0.000
1742813713.436,1.465,-19.043,-54.688,6.836,0.000
1742813713.440,0.488,-18.066,-53.711,12.207,0.000
1742813713.444,-11.230,-9.766,-59.570,-7.324,0.000
1742813713.448,-13.184,-12.207,-76.172,-18.555,0.000
1742813713.452,-15.625,-16.113,-78.125,-19.531,0.000
1742813713.456,-16.602,-13.184,-72.266,-21.973,0.000
1742813713.460,-16.113,-15.625,-68.848,-12.207,0.000
1742813713.463,-19.531,-18.066,-60.547,-6.836,0.000
1742813713.467,-27.832,-20.508,-56.641,-8.789,0.000
1742813713.471,-21.973,-19.043,-50.293,-4.883,0.000
1742813713.475,0.488,-5.371,-40.527,0.000,0.000
1742813713.479,0.977,-1.465,-36.133,3.906,0.000
1742813713.483,-10.254,-6.836,-41.504,-0.977,0.000
1742813713.487,-8.301,4.395,-39.551,-8.789,0.000
1742813713.491,-6.348,11.230,-40.527,-8.301,0.000
1742813713.495,-7.324,2.930,-46.387,-5.859,0.000
1742813713.499,-3.906,-4.883,-42.969,-6.348,0.000
1742813713.503,-5.859,-8.301,-44.434,-5.859,0.000
1742813713.506,-10.742,-12.207,-45.410,-12.207,0.000
1742813713.510,-12.695,-9.277,-45.898,-18.555,0.000
1742813713.514,-8.789,-6.348,-44.434,-14.648,0.000
1742813713.518,5.371,0.000,-42.969,-3.906,0.000
1742813713.522,5.371,6.836,-49.316,-1.953,0.000
1742813713.526,-0.488,7.324,-47.363,-12.207,0.000
1742813713.530,-3.906,-0.977,-45.410,-15.137,0.000
1742813713.534,1.953,-2.441,-41.016,-0.488,0.000
1742813713.538,15.137,4.395,-34.180,26.367,0.000
1742813713.542,11.230,2.441,-36.621,30.273,0.000
1742813713.545,8.301,2.930,-42.969,13.184,0.000
1742813713.549,10.254,4.883,-50.781,9.766,0.000
1742813713.553,8.301,1.465,-56.152,19.043,0.000
1742813713.557,4.883,-5.371,-50.293,17.578,0.000
1742813713.561,-5.859,-15.625,-55.664,0.000,0.000
1742813713.565,-20.996,-19.043,-62.500,-16.113,0.000
1742813713.569,-32.715,-21.973,-61.523,-29.785,0.000
1742813713.573,-31.738,-23.926,-57.617,-28.320,0.000
1742813713.577,-27.344,-18.066,-52.246,-11.719,0.000
1742813713.581,-27.832,-16.602,-62.500,-12.695,0.000
1742813713.585,-33.691,-18.066,-74.707,-26.855,0.000
1742813713.588,-36.621,-9.766,-70.312,-36.621,0.000
1742813713.592,-34.668,-7.812,-66.895,-41.504,0.000
1742813713.596,-37.109,-16.602,-68.359,-39.551,0.000
1742813713.600,-40.039,-18.555,-62.988,-37.598,0.000
1742813713.604,-39.062,-21.973,-59.570,-37.109,0.000
1742813713.608,-42.480,-28.320,-62.500,-48.340,0.000
1742813713.612,-44.434,-32.227,-68.359,-49.316,0.000
1742813713.616,-35.156,-30.762,-66.406,-38.086,0.000
1742813713.620,-32.715,-26.367,-66.895,-32.715,0.000
1742813713.624,-37.598,-23.438,-73.242,-26.855,0.000
1742813713.627,-32.227,-16.113,-77.637,-25.391,0.000
1742813713.631,-24.414,-10.254,-67.383,-23.926,0.000
1742813713.635,-21.484,-15.137,-58.105,-16.602,0.000
1742813713.639,-17.090,-18.555,-62.988,-2.930,0.000
1742813713.643,-12.695,-14.160,-58.594,-9.766,0.000
1742813713.647,-21.973,-14.648,-58.105,-28.320,0.000
1742813713.651,-33.203,-18.066,-63.477,-29.785,0.000
1742813713.655,-27.832,-13.184,-62.500,-14.648,0.000
1742813713.659,-26.855,-11.719,-65.918,-6.348,0.000
1742813713.663,-34.180,-10.254,-62.988,-9.766,0.000
1742813713.667,-28.320,-10.742,-63.477,-20.996,0.000
1742813713.670,-19.043,-18.066,-72.754,-25.391,0.000
1742813713.674,-16.602,-24.414,-73.242,-10.742,0.000
1742813713.678,-16.602,-24.902,-65.430,-4.395,0.000
1742813713.682,-28.320,-19.531,-59.570,-19.043,0.000
1742813713.686,-36.621,-13.672,-64.941,-39.062,0.000
1742813713.690,-35.645,-17.578,-71.777,-44.922,0.000
1742813713.694,-37.598,-25.391,-75.684,-46.387,0.000
1742813713.698,-31.738,-21.973,-76.172,-39.551,0.000
1742813713.702,-21.973,-16.113,-70.312,-35.645,0.000
1742813713.706,-26.367,-18.555,-65.430,-27.832,0.000
1742813713.710,-26.367,-23.438,-65.918,-29.297,0.000
1742813713.713,-10.742,-21.484,-64.453,-22.949,0.000
1742813713.717,-2.441,-15.625,-60.059,-4.883,0.000
1742813713.721,-7.812,-9.766,-56.152,-6.348,0.000
1742813713.725,-18.555,-13.184,-57.129,-18.555,0.000
1742813713.729,-22.461,-21.484,-61.035,-37.109,0.000
1742813713.733,-27.832,-21.484,-67.383,-29.297,0.000
1742813713.737,-27.344,-25.391,-72.266,-24.414,0.000
1742813713.741,-17.578,-28.809,-72.266,-26.855,0.000
1742813713.745,-23.438,-28.320,-75.684,-23.926,0.000
1742813713.749,-28.320,-27.344,-79.102,-30.762,0.000
1742813713.753,-19.531,-21.484,-71.777,-24.414,0.000
1742813713.756,-16.113,-16.602,-62.988,-8.789,0.000
1742813713.760,-22.461,-18.066,-67.871,-8.301,0.000
1742813713.764,-30.273,-24.414,-76.660,-15.625,0.000
1742813713.768,-36.133,-27.344,-78.613,-38.086,0.000
1742813713.772,-47.852,-30.762,-83.008,-49.316,0.000
1742813713.776,-40.039,-29.785,-91.309,-39.551,0.000
1742813713.780,-30.762,-20.020,-83.496,-27.832,0.000
1742813713.784,-40.039,-20.996,-76.172,-25.391,0.000
1742813713.788,-42.969,-29.297,-83.984,-45.410,0.000
1742813713.792,-43.457,-32.715,-86.426,-49.805,0.000
1742813713.795,-36.133,-30.762,-82.031,-34.668,0.000
1742813713.799,-31.738,-29.785,-79.590,-33.203,0.000
1742813713.803,-37.598,-30.762,-83.984,-35.645,0.000
1742813713.807,-37.109,-23.926,-87.402,-35.156,0.000
1742813713.811,-38.574,-25.879,-91.309,-38.086,0.000
1742813713.815,-46.387,-40.527,-94.727,-36.621,0.000
1742813713.819,-56.641,-50.781,-94.727,-34.180,0.000
1742813713.823,-58.105,-51.758,-99.609,-43.945,0.000
1742813713.827,-61.035,-49.316,-100.098,-59.570,0.000
1742813713.831,-60.547,-49.316,-95.215,-54.688,0.000
1742813713.835,-44.434,-47.852,-102.051,-33.203,0.000
1742813713.838,-39.062,-44.922,-103.516,-30.762,0.000
1742813713.842,-44.434,-45.898,-101.562,-45.898,0.000
1742813713.846,-50.293,-50.293,-104.492,-56.641,0.000
1742813713.850,-50.293,-56.152,-102.539,-57.129,0.000
1742813713.854,-45.898,-56.641,-96.680,-50.293,0.000
1742813713.858,-46.875,-57.617,-93.750,-38.086,0.000
1742813713.862,-47.852,-55.664,-94.238,-35.645,0.000
1742813713.866,-39.551,-45.410,-92.773,-39.062,0.000
1742813713.870,-37.109,-46.387,-96.680,-51.758,0.000
1742813713.874,-32.715,-48.340,-96.680,-59.570,0.000
1742813713.877,-29.785,-44.434,-94.727,-45.410,0.000
1742813713.881,-38.086,-41.504,-96.680,-31.250,0.000
1742813713.885,-43.945,-41.504,-94.727,-41.504,0.000
1742813713.889,-46.875,-45.410,-89.355,-54.688,0.000
1742813713.893,-48.340,-36.621,-80.078,-40.039,0.000
1742813713.897,-48.340,-37.109,-77.148,-29.297,0.000
1742813713.901,-46.875,-44.434,-79.590,-36.621,0.000
1742813713.905,-45.410,-35.645,-77.148,-37.109,0.000
1742813713.909,-44.434,-31.250,-69.336,-33.691,0.000
1742813713.913,-40.039,-38.086,-70.312,-24.902,0.000
1742813713.917,-32.227,-33.203,-69.824,-18.555,0.000
1742813713.920,-42.480,-28.809,-69.824,-27.344,0.000
1742813713.924,-54.688,-29.297,-76.172,-34.668,0.000
1742813713.928,-55.664,-27.344,-69.824,-42.480,0.000
1742813713.932,0.000,-24.902,-69.336,-44.434,0.000
1742813713.936,0.000,-14.160,-67.871,-29.785,0.000
1742813713.940,0.000,-13.672,-68.848,-23.926,0.000
1742813713.944,0.000,-10.742,-72.266,-32.227,0.000
1742813713.948,0.000,-8.301,-75.195,-37.598,0.000
1742813713.952,0.000,-14.648,-83.008,-47.363,0.000
1742813713.956,0.000,-24.902,-86.914,-45.898,0.000
1742813713.960,0.000,-28.320,-87.402,-40.039,0.000
1742813713.963,0.000,-27.832,-88.867,-49.805,0.000
1742813713.967,0.000,-32.715,-88.867,-56.152,0.000
1742813713.971,0.000,-29.297,-95.215,-52.734,0.000
1742813713.975,0.000,-31.738,-91.797,-39.551,0.000
1742813713.979,-35.156,-42.480,-84.961,-29.785,0.000
1742813713.983,-44.434,-41.992,-88.379,-36.133,0.000
1742813713.987,-35.156,-35.156,-84.961,-46.387,0.000
1742813713.991,-34.668,-34.668,-79.102,-41.016,0.000
1742813713.995,-39.551,-32.715,-73.242,-21.973,0.000
1742813713.999,-37.109,-34.180,-76.660,-15.137,0.000
1742813714.002,-32.227,-37.109,-88.379,-18.066,0.000
1742813714.006,-36.133,-39.062,-90.332,-25.391,0.000
1742813714.010,-41.504,-42.480,-89.355,-29.785,0.000
1742813714.014,-36.621,-42.480,-94.727,-29.297,0.000
1742813714.018,-40.527,-40.039,-93.262,-36.621,0.000
1742813714.022,-49.805,-39.551,-91.309,-41.504,0.000
1742813714.026,-57.617,-42.969,-90.820,-53.711,0.000
1742813714.030,-60.547,-45.898,-90.820,-62.012,0.000
1742813714.034,-54.688,-44.434,-93.262,-46.875,0.000
1742813714.038,-56.152,-42.969,-94.727,-47.852,0.000
1742813714.042,-59.082,-43.945,-97.168,-58.594,0.000
1742813714.045,-52.246,-40.527,-98.633,-62.500,0.000
1742813714.049,-48.340,-31.250,-95.703,-67.383,0.000
1742813714.053,-48.340,-30.762,-88.379,-67.383,0.000
1742813714.057,-49.316,-34.180,-82.031,-62.988,0.000
1742813714.061,-54.199,-38.086,-83.008,-57.617,0.000
1742813714.065,-50.781,-32.715,-79.590,-57.129,0.000
1742813714.069,-37.598,-28.320,-78.613,-60.547,0.000
1742813714.073,-21.484,-28.809,-77.148,-42.969,0.000
1742813714.077,-3.418,-21.973,-71.777,-15.625,0.000
1742813714.081,8.789,-12.695,-61.035,-10.742,0.000
1742813714.084,0.977,-11.230,-57.129,-12.695,0.000
1742813714.088,-5.371,-18.066,-62.012,-9.277,0.000
1742813714.092,5.859,-20.508,-59.082,-3.906,0.000
1742813714.096,10.254,-15.137,-51.758,11.230,0.000
1742813714.100,5.859,-12.207,-54.688,11.719,0.000
1742813714.104,-1.953,-21.484,-59.082,-6.348,0.000
1742813714.108,-6.348,-25.879,-63.477,-5.859,0.000
1742813714.112,-6.836,-23.438,-61.035,6.836,0.000
1742813714.116,0.977,-19.043,-59.570,15.137,0.000
1742813714.120,3.906,-21.484,-70.312,10.742,0.000
1742813714.124,-11.230,-25.879,-74.707,-11.719,0.000
1742813714.127,-17.578,-20.020,-70.801,-30.273,0.000
1742813714.131,-18.555,-22.461,-68.848,-32.227,0.000
1742813714.135,-23.438,-25.879,-71.777,-27.832,0.000
1742813714.139,-33.203,-30.762,-78.613,-24.414,0.000
1742813714.143,-50.781,-36.133,-88.379,-39.062,0.000
1742813714.147,-59.082,-39.551,-90.820,-59.082,0.000
1742813714.151,-59.570,-38.574,-87.891,-59.570,0.000
1742813714.155,-58.105,-33.203,-87.402,-49.805,0.000
1742813714.159,-60.059,-34.180,-86.426,-41.504,0.000
1742813714.163,-67.871,-29.785,-91.309,-49.316,0.000
1742813714.167,0.000,-19.043,-90.332,-48.828,0.000
1742813714.170,0.000,-13.184,-82.031,-41.016,0.000
1742813714.174,0.000,-10.254,-76.172,-41.504,0.000
1742813714.178,0.000,-14.160,-77.148,-39.551,0.000
1742813714.182,0.000,-14.160,-80.566,-32.715,0.000
1742813714.186,0.000,-13.672,-83.984,-34.180,0.000
1742813714.190,0.000,-11.719,-78.125,-33.203,0.000
1742813714.194,0.000,-8.301,-67.871,-16.113,0.000
1742813714.198,0.000,-12.207,-72.266,-10.254,0.000
1742813714.202,0.000,-14.160,-71.777,-19.531,0.000
1742813714.206,0.000,-15.137,-65.918,-36.133,0.000
1742813714.209,0.000,-17.090,-64.941,-44.434,0.000
1742813714.213,-3.906,-17.090,-63.477,-27.344,0.000
1742813714.217,10.742,-15.137,-72.266,-1.953,0.000
1742813714.221,18.555,-10.254,-79.102,7.324,0.000
1742813714.225,7.324,-7.812,-81.055,-5.859,0.000
1742813714.229,-16.602,-16.113,-86.914,-28.809,0.000
1742813714.233,-19.531,-23.438,-84.961,-33.691,0.000
1742813714.237,-17.578,-24.902,-76.172,-18.066,0.000
1742813714.241,-28.320,-24.414,-72.266,-10.742,0.000
1742813714.245,-30.762,-18.555,-73.242,-21.484,0.000
1742813714.249,-36.621,-20.508,-74.219,-37.598,0.000
1742813714.252,-33.691,-21.484,-72.266,-33.203,0.000
1742813714.256,-27.832,-19.531,-74.707,-19.531,0.000
1742813714.260,-33.691,-23.926,-85.938,-22.949,0.000
1742813714.264,-32.227,-16.113,-83.984,-32.227,0.000
1742813714.268,-26.367,-7.324,-74.219,-34.668,0.000
1742813714.272,-15.137,-4.883,-69.824,-20.508,0.000
1742813714.276,-16.113,-12.695,-79.102,-20.996,0.000
1742813714.280,-23.926,-19.531,-85.449,-25.391,0.000
1742813714.284,-28.809,-20.996,-84.961,-24.902,0.000
1742813714.288,-38.086,-24.902,-93.750,-35.156,0.000
1742813714.291,-37.598,-24.902,-88.867,-37.598,0.000
1742813714.295,-37.598,-28.809,-79.102,-39.062,0.000
1742813714.299,-37.598,-31.250,-82.031,-34.180,0.000
1742813714.303,-35.156,-19.043,-77.148,-27.344,0.000
1742813714.307,-36.133,-14.160,-69.336,-32.715,0.000
1742813714.311,-25.391,-19.043,-70.312,-30.273,0.000
1742813714.315,-17.578,-18.555,-72.266,-16.113,0.000
1742813714.319,-20.020,-18.555,-78.613,-25.391,0.000
1742813714.323,-22.949,-13.184,-75.195,-29.297,0.000
1742813714.327,-24.414,-7.812,-64.453,-14.648,0.000
1742813714.331,-16.113,-6.836,-60.547,-10.742,0.000
1742813714.334,-3.906,-5.859,-56.152,-3.906,0.000
1742813714.338,-4.883,-7.324,-44.434,12.207,0.000
1742813714.342,-10.742,-9.277,-45.898,-1.953,0.000
1742813714.346,-16.602,-10.254,-53.711,-15.625,0.000
1742813714.350,-16.113,-7.324,-51.270,-8.301,0.000
1742813714.354,-12.695,1.953,-48.340,-10.742,0.000
1742813714.358,-6.348,8.789,-48.340,-7.324,0.000
1742813714.362,-5.371,7.324,-51.270,-12.207,0.000
1742813714.366,-17.578,5.859,-58.594,-26.855,0.000
1742813714.370,-23.926,0.000,-59.082,-21.973,0.000
1742813714.374,-25.391,-6.836,-59.082,-21.484,0.000
1742813714.377,-20.508,-8.301,-62.988,-3.418,0.000
1742813714.381,-18.555,-8.301,-56.152,0.977,0.000
1742813714.385,-34.668,-5.859,-55.176,-25.391,0.000
1742813714.389,-36.621,-3.906,-65.430,-30.273,0.000
1742813714.393,-23.926,-3.418,-64.941,-10.742,0.000
1742813714.397,-24.414,-7.324,-61.035,-1.953,0.000
1742813714.401,-28.320,-7.324,-68.359,-14.160,0.000
1742813714.405,-31.738,-13.672,-84.961,-28.809,0.000
1742813714.409,-30.273,-26.367,-83.984,-31.250,0.000
1742813714.413,-27.832,-28.320,-72.266,-30.762,0.000
1742813714.416,-27.832,-27.344,-78.613,-22.461,0.000
1742813714.420,-29.297,-31.250,-87.891,-17.090,0.000
1742813714.424,-23.438,-26.367,-86.914,-19.043,0.000
1742813714.428,-14.160,-23.438,-86.914,-31.250,0.000
1742813714.432,-4.395,-25.879,-91.309,-30.273,0.000
1742813714.436,0.488,-29.785,-93.750,-25.391,0.000
1742813714.440,-13.184,-33.203,-89.844,-42.480,0.000
1742813714.444,-14.648,-23.926,-90.820,-52.734,0.000
1742813714.448,-15.625,-20.508,-93.750,-57.617,0.000
1742813714.452,-9.766,-18.555,-88.867,-56.152,0.000
1742813714.456,0.000,-17.578,-76.660,-42.969,0.000
1742813714.459,-6.348,-19.531,-67.383,-28.320,0.000
1742813714.463,-18.555,-17.090,-73.730,-28.320,0.000
1742813714.467,-37.109,-21.484,-85.449,-42.480,0.000
1742813714.471,-40.527,-25.879,-85.938,-46.875,0.000
1742813714.475,-38.574,-27.344,-80.566,-29.297,0.000
1742813714.479,-45.898,-33.691,-83.496,-24.414,0.000
1742813714.483,-45.898,-39.551,-85.938,-29.785,0.000
1742813714.487,-46.875,-38.574,-85.938,-33.691,0.000
1742813714.491,-45.410,-40.039,-83.008,-45.410,0.000
1742813714.495,-37.598,-37.109,-82.520,-43.945,0.000
1742813714.499,-32.715,-29.785,-82.031,-30.273,0.000
1742813714.502,-36.133,-25.879,-78.125,-31.250,0.000
1742813714.506,-45.898,-27.832,-83.984,-47.852,0.000
1742813714.510,-40.527,-29.785,-88.867,-49.805,0.000
1742813714.514,-24.902,-23.438,-82.520,-37.598,0.000
1742813714.518,-23.926,-20.508,-80.566,-32.227,0.000
1742813714.522,-30.273,-17.090,-83.008,-34.668,0.000
1742813714.526,-33.691,-13.184,-91.309,-36.133,0.000
1742813714.530,-29.785,-18.555,-97.168,-31.250,0.000
1742813714.534,-23.926,-19.043,-84.961,-30.762,0.000
1742813714.538,-26.367,-19.043,-75.684,-26.855,0.000
1742813714.541,-28.809,-25.879,-73.730,-22.461,0.000
1742813714.545,-33.203,-25.391,-71.777,-33.203,0.000
1742813714.549,-34.668,-18.066,-69.336,-26.367,0.000
1742813714.553,-30.273,-17.090,-69.336,-21.973,0.000
1742813714.557,-27.832,-19.531,-75.684,-26.367,0.000
1742813714.561,-29.297,-18.555,-80.566,-22.949,0.000
1742813714.565,-40.527,-18.555,-83.496,-36.621,0.000
1742813714.569,-33.691,-20.508,-83.496,-39.062,0.000
1742813714.573,-22.949,-23.438,-85.449,-22.461,0.000
1742813714.577,-28.320,-29.785,-80.566,-15.625,0.000
1742813714.581,-23.438,-28.809,-70.312,-13.672,0.000
1742813714.584,-21.484,-19.043,-72.266,-17.578,0.000
1742813714.588,-22.461,-13.184,-68.359,-13.672,0.000
1742813714.592,-8.789,-10.742,-55.664,-12.695,0.000
1742813714.596,1.953,-15.137,-53.223,-16.113,0.000
1742813714.600,-7.324,-13.672,-58.594,-15.137,0.000
1742813714.604,-12.207,-9.766,-62.012,-20.996,0.000
1742813714.608,-15.625,-18.555,-70.801,-23.438,0.000
1742813714.612,-20.020,-25.879,-77.637,-23.438,0.000
1742813714.616,-17.090,-25.879,-74.219,-10.742,0.000
1742813714.620,-11.230,-21.973,-68.359,6.348,0.000
1742813714.623,-10.742,-14.160,-65.430,-2.930,0.000
1742813714.627,-12.695,-2.930,-64.941,-13.672,0.000
1742813714.631,-5.859,1.953,-60.547,-15.137,0.000
1742813714.635,2.441,4.883,-49.316,-0.977,0.000
1742813714.639,-0.488,3.906,-42.969,9.766,0.000
1742813714.643,-1.465,0.000,-47.852,6.348,0.000
1742813714.647,-1.465,5.371,-45.898,0.488,0.000
1742813714.651,4.395,13.184,-43.945,-0.977,0.000
1742813714.655,11.719,15.137,-42.969,14.160,0.000
1742813714.659,8.789,13.672,-45.898,13.184,0.000
1742813714.663,12.695,18.555,-47.363,15.137,0.000
1742813714.666,17.578,23.926,-38.086,15.137,0.000
1742813714.670,13.184,10.254,-36.133,2.441,0.000
1742813714.674,19.043,-1.465,-38.574,18.066,0.000
1742813714.678,25.391,-1.953,-40.039,18.555,0.000
1742813714.682,15.137,-5.371,-46.387,-6.348,0.000
1742813714.686,5.859,-8.789,-48.828,-14.648,0.000
1742813714.690,4.395,-6.348,-50.293,-6.836,0.000
1742813714.694,10.254,0.977,-45.410,-1.465,0.000
1742813714.698,6.836,-0.488,-42.969,-4.395,0.000
1742813714.702,-3.418,-2.930,-50.781,-11.230,0.000
1742813714.706,-11.230,-10.254,-58.105,-21.484,0.000
1742813714.709,-19.531,-20.508,-65.918,-20.996,0.000
1742813714.713,-20.020,-15.625,-60.059,-16.602,0.000
1742813714.717,-16.113,-16.113,-57.129,-12.207,0.000
1742813714.721,-17.578,-16.113,-62.988,-20.996,0.000
1742813714.725,-24.902,-9.766,-61.523,-28.809,0.000
1742813714.729,-29.297,-8.301,-52.246,-27.344,0.000
1742813714.733,-22.949,-13.184,-54.688,-28.320,0.000
1742813714.737,-29.785,-22.949,-65.918,-35.156,0.000
1742813714.741,-48.340,-35.645,-81.055,-49.805,0.000
1742813714.745,-57.617,-45.410,-89.355,-57.129,0.000
1742813714.748,-68.359,-54.199,-97.656,-68.359,0.000
1742813714.752,-76.660,-63.965,-109.863,-75.195,0.000
1742813714.756,-82.031,-66.406,-109.375,-71.289,0.000
1742813714.760,-86.426,-70.312,-110.352,-81.055,0.000
1742813714.764,-76.172,-68.848,-117.188,-87.402,0.000
1742813714.768,-70.801,-63.965,-113.770,-81.055,0.000
1742813714.772,-62.988,-56.641,-105.957,-65.918,0.000
1742813714.776,-50.293,-51.270,-102.539,-45.410,0.000
1742813714.780,-42.480,-46.875,-97.168,-39.062,0.000
1742813714.784,-43.945,-46.875,-88.379,-33.691,0.000
1742813714.788,-53.223,-47.852,-91.309,-34.668,0.000
1742813714.791,-59.570,-43.945,-104.492,-50.781,0.000
1742813714.795,-56.152,-39.062,-114.746,-51.758,0.000
1742813714.799,-48.828,-34.180,-113.770,-42.480,0.000
1742813714.803,-41.992,-24.414,-96.191,-37.598,0.000
1742813714.807,-46.875,-20.508,-83.984,-42.480,0.000
1742813714.811,-58.594,-30.762,-86.914,-53.223,0.000
1742813714.815,-64.941,-37.598,-85.449,-56.152,0.000
1742813714.819,-60.547,-37.598,-78.125,-56.641,0.000
1742813714.823,-61.035,-39.062,-80.078,-63.965,0.000
1742813714.827,-66.406,-40.039,-86.914,-71.289,0.000
1742813714.831,-58.594,-29.785,-86.426,-60.547,0.000
1742813714.834,-46.387,-20.508,-78.613,-42.969,0.000
1742813714.838,-39.551,-20.996,-74.219,-34.668,0.000
1742813714.842,-39.551,-24.902,-71.777,-21.484,0.000
1742813714.846,-29.785,-23.438,-64.941,-15.137,0.000
1742813714.850,-20.996,-19.531,-60.547,-24.902,0.000
1742813714.854,-15.137,-25.391,-62.988,-23.438,0.000
1742813714.858,4.395,-17.578,-58.105,5.859,0.000
1742813714.862,15.137,-4.395,-53.711,24.902,0.000
1742813714.866,12.695,0.488,-51.270,4.883,0.000
1742813714.870,13.672,-3.906,-55.176,-0.977,0.000
1742813714.873,9.277,-9.277,-49.316,34.180,0.000
1742813714.877,-8.301,-10.742,-39.551,27.832,0.000
1742813714.881,-16.602,-20.020,-42.969,-0.488,0.000
1742813714.885,-20.508,-23.926,-48.340,-1.465,0.000
1742813714.889,-22.949,-25.391,-56.152,-19.043,0.000
1742813714.893,-20.996,-28.809,-63.477,-23.926,0.000
1742813714.897,-24.902,-26.367,-66.895,-2.930,0.000
1742813714.901,-14.160,-20.020,-71.777,-6.836,0.000
1742813714.905,-27.344,-20.508,-73.242,-28.320,0.000
1742813714.909,-48.828,-28.320,-63.477,-44.434,0.000
1742813714.913,-33.691,-25.879,-53.711,-35.156,0.000
1742813714.916,-27.344,-22.949,-59.082,-11.230,0.000
1742813714.920,-38.086,-24.414,-68.848,-24.902,0.000
1742813714.924,-54.688,-30.762,-73.242,-62.012,0.000
1742813714.928,-54.199,-38.086,-74.707,-64.453,0.000
1742813714.932,-35.156,-25.879,-69.824,-43.945,0.000
1742813714.936,-26.367,-22.949,-59.082,-33.691,0.000
1742813714.940,-7.324,-12.207,-59.082,-17.090,0.000
1742813714.944,-5.859,-3.418,-56.641,-7.324,0.000
1742813714.948,-16.113,-7.812,-53.711,-13.672,0.000
1742813714.952,-19.531,-7.324,-53.711,-30.273,0.000
1742813714.955,-25.879,-17.090,-44.434,-18.066,0.000
1742813714.959,-18.555,-29.297,-50.293,-3.418,0.000
1742813714.963,-22.949,-26.855,-74.219,-21.484,0.000
1742813714.967,-41.016,-8.789,-73.730,-41.016,0.000
1742813714.971,-44.434,-5.859,-63.965,-51.758,0.000
1742813714.975,-20.508,-19.531,-69.336,-38.086,0.000
1742813714.979,-18.555,-21.484,-75.195,-31.738,0.000
1742813714.983,-24.414,-15.137,-73.730,-27.832,0.000
1742813714.987,-34.668,-13.184,-67.383,-39.062,0.000
1742813714.991,-49.805,-43.457,-67.871,-55.176,0.000
1742813714.995,-46.387,-48.340,-62.988,-50.293,0.000
1742813714.998,-25.879,-1.465,-54.688,-17.578,0.000
1742813715.002,-12.695,11.719,-54.199,11.719,0.000
1742813715.006,-29.297,-7.324,-65.918,-8.789,0.000
1742813715.010,0.000,-8.789,-85.938,-38.086,0.000
1742813715.014,0.000,-13.184,-73.242,-41.504,0.000
1742813715.018,0.000,-13.672,-55.664,-21.484,0.000
1742813715.022,0.000,-9.277,-56.641,-16.113,0.000
1742813715.026,0.000,-11.230,-53.711,-27.832,0.000
1742813715.030,0.000,-22.461,-60.059,-27.832,0.000
1742813715.034,0.000,-26.855,-66.895,-33.691,0.000
1742813715.038,0.000,-21.973,-66.406,-28.809,0.000
1742813715.041,0.000,-23.926,-66.406,-19.043,0.000
1742813715.045,0.000,-23.438,-55.176,-24.902,0.000
1742813715.049,0.000,-31.738,-59.082,-27.832,0.000
1742813715.053,0.000,-26.367,-55.176,-11.719,0.000
1742813715.057,-14.160,-8.789,-38.086,-6.348,0.000
1742813715.061,-21.484,-9.277,-45.410,-23.438,0.000
1742813715.065,-24.414,-10.254,-57.129,-27.832,0.000
1742813715.069,-19.043,-4.395,-64.941,-24.902,0.000
1742813715.073,-2.441,-15.625,-72.266,-19.043,0.000
1742813715.077,13.184,-9.277,-64.453,-0.488,0.000
1742813715.080,3.418,9.766,-57.129,-0.488,0.000
1742813715.084,-2.930,0.977,-55.664,-16.113,0.000
1742813715.088,0.000,-5.371,-58.105,-26.367,0.000
1742813715.092,-11.719,-8.789,-59.570,-23.438,0.000
1742813715.096,-11.719,-4.395,-46.387,-16.113,0.000
1742813715.100,-11.719,4.395,-47.363,-14.648,0.000
1742813715.104,-22.949,0.977,-57.129,-21.484,0.000
1742813715.108,-23.438,-0.977,-55.176,-39.551,0.000
1742813715.112,-20.996,0.488,-57.129,-44.922,0.000
1742813715.116,-16.113,-7.324,-54.688,-33.691,0.000
1742813715.120,-7.812,-11.230,-46.875,-25.879,0.000
1742813715.123,-16.113,-13.184,-53.711,-25.391,0.000
1742813715.127,-27.344,-13.184,-65.918,-42.480,0.000
1742813715.131,-34.668,-13.184,-61.523,-55.176,0.000
1742813715.135,-42.969,-16.113,-51.758,-48.340,0.000
1742813715.139,-40.527,-12.695,-56.152,-36.621,0.000
1742813715.143,-36.621,-8.789,-60.059,-37.109,0.000
1742813715.147,-36.133,-4.395,-54.688,-45.898,0.000
1742813715.151,-25.391,-1.465,-48.828,-42.480,0.000
1742813715.155,-6.836,-4.883,-43.457,-11.719,0.000
1742813715.159,-13.184,-6.836,-44.434,-0.488,0.000
1742813715.162,-29.297,-6.348,-48.828,-25.391,0.000
1742813715.166,-19.531,-4.395,-48.340,-27.344,0.000
1742813715.170,-16.602,-2.441,-61.035,-13.184,0.000
1742813715.174,-29.785,-9.766,-73.730,-24.414,0.000
1742813715.178,-20.996,-11.230,-71.777,-39.551,0.000
1742813715.182,-16.602,-7.812,-69.336,-38.086,0.000
1742813715.186,-25.391,-9.277,-70.312,-46.875,0.000
1742813715.190,-19.531,-9.277,-68.359,-47.852,0.000
1742813715.194,-16.602,-14.160,-63.965,-39.062,0.000
1742813715.198,-17.090,-14.160,-67.871,-41.016,0.000
1742813715.202,-19.043,-11.230,-71.777,-33.203,0.000
1742813715.205,-30.762,-7.324,-76.172,-34.668,0.000
1742813715.209,-26.855,-1.953,-78.613,-37.598,0.000
1742813715.213,-22.461,-5.859,-80.078,-45.410,0.000
1742813715.217,-20.508,-7.324,-80.078,-34.180,0.000
1742813715.221,-19.531,-7.324,-82.031,-38.086,0.000
1742813715.225,-40.039,-18.555,-93.262,-75.684,0.000
1742813715.229,-54.199,-26.367,-96.680,-69.824,0.000
1742813715.233,-65.430,-28.809,-98.145,-68.848,0.000
1742813715.237,-67.871,-27.344,-90.820,-71.289,0.000
1742813715.241,-59.570,-19.043,-78.613,-59.570,0.000
