timestamps,TP9,AF7,AF8,TP10,Right AUX
1742814842.962,-1000.000,-979.980,-417.969,-1000.000,0.000
1742814842.965,-804.688,-990.234,-399.902,-806.152,0.000
1742814842.969,-623.535,-1000.000,-520.508,-617.676,0.000
1742814842.973,-765.625,-1000.000,-525.391,-744.141,0.000
1742814842.977,-896.484,-993.652,-436.035,-884.277,0.000
1742814842.981,-996.094,-993.164,-494.141,-996.582,0.000
1742814842.985,-1000.000,-1000.000,-610.840,-1000.000,0.000
1742814842.989,-842.773,-1000.000,-652.344,-839.844,0.000
1742814842.993,-673.828,-1000.000,-441.895,-652.832,0.000
1742814842.997,-898.926,-998.047,-409.668,-880.371,0.000
1742814843.001,-1000.000,-985.352,-483.887,-1000.000,0.000
1742814843.004,-920.410,-987.793,-446.777,-922.363,0.000
1742814843.008,-523.926,-1000.000,-417.480,-536.621,0.000
1742814843.012,-430.176,-1000.000,-452.148,-429.199,0.000
1742814843.016,-862.305,-992.676,-479.492,-855.469,0.000
1742814843.020,-1000.000,-981.934,-425.293,-1000.000,0.000
1742814843.024,-949.707,-984.863,-441.406,-946.289,0.000
1742814843.028,-856.934,-996.094,-514.648,-848.145,0.000
1742814843.032,-896.484,-1000.000,-599.609,-888.672,0.000
1742814843.036,-1000.000,-999.023,-502.930,-996.582,0.000
1742814843.040,-988.281,-989.746,-375.000,-986.816,0.000
1742814843.043,-1000.000,-981.934,-459.473,-1000.000,0.000
1742814843.047,-934.082,-989.746,-521.484,-931.152,0.000
1742814843.051,-632.812,-1000.000,-464.355,-615.723,0.000
1742814843.055,-731.445,-1000.000,-383.789,-712.402,0.000
1742814843.059,-1000.000,-989.746,-494.141,-1000.000,0.000
1742814843.063,-1000.000,-982.910,-558.105,-1000.000,0.000
1742814843.067,-797.363,-994.629,-457.520,-792.969,0.000
1742814843.071,-565.918,-1000.000,-469.727,-550.293,0.000
1742814843.075,-826.660,-1000.000,-597.656,-810.547,0.000
1742814843.079,-1000.000,-1000.000,-684.082,-1000.000,0.000
1742814843.083,-1000.000,-998.535,-494.141,-1000.000,0.000
1742814843.086,-743.164,-998.535,-420.898,-733.398,0.000
1742814843.090,-597.656,-1000.000,-467.285,-590.820,0.000
1742814843.094,-816.406,-1000.000,-419.434,-821.289,0.000
1742814843.098,-929.199,-993.652,-392.090,-929.688,0.000
1742814843.102,-1000.000,-982.910,-453.125,-1000.000,0.000
1742814843.106,-977.539,-990.723,-495.117,-981.445,0.000
1742814843.110,-558.594,-1000.000,-440.430,-562.500,0.000
1742814843.114,-520.020,-1000.000,-408.203,-502.930,0.000
1742814843.118,-927.734,-992.676,-447.754,-916.504,0.000
1742814843.122,-1000.000,-995.605,-541.504,-1000.000,0.000
1742814843.126,-927.734,-1000.000,-483.887,-926.758,0.000
1742814843.129,-486.328,-999.512,-403.320,-478.516,0.000
1742814843.133,-558.105,-1000.000,-460.449,-546.387,0.000
1742814843.137,-991.211,-994.629,-549.805,-989.746,0.000
1742814843.141,-1000.000,-982.910,-466.797,-1000.000,0.000
1742814843.145,-864.258,-988.281,-403.809,-864.746,0.000
1742814843.149,-646.973,-1000.000,-502.930,-642.090,0.000
1742814843.153,-736.816,-1000.000,-522.949,-712.402,0.000
1742814843.157,-901.855,-994.629,-411.621,-885.742,0.000
1742814843.161,-1000.000,-988.281,-474.609,-1000.000,0.000
1742814843.165,-1000.000,-996.582,-559.570,-1000.000,0.000
1742814843.168,-913.574,-1000.000,-550.293,-907.715,0.000
1742814843.172,-861.816,-1000.000,-497.070,-848.633,0.000
1742814843.176,-993.164,-1000.000,-466.797,-990.234,0.000
1742814843.180,-1000.000,-989.746,-613.770,-1000.000,0.000
1742814843.184,-961.914,-992.188,-631.836,-959.961,0.000
1742814843.188,-563.477,-1000.000,-397.461,-557.617,0.000
1742814843.192,-354.980,-1000.000,-428.711,-348.633,0.000
1742814843.196,-793.457,-996.094,-490.234,-789.551,0.000
1742814843.200,-1000.000,-984.375,-436.035,-1000.000,0.000
1742814843.204,-954.590,-985.352,-397.949,-952.148,0.000
1742814843.208,-669.922,-998.047,-445.801,-660.156,0.000
1742814843.211,-656.738,-1000.000,-510.742,-644.043,0.000
1742814843.215,-950.195,-999.512,-513.184,-943.848,0.000
1742814843.219,-998.047,-1000.000,-490.723,-999.023,0.000
1742814843.223,-995.117,-994.141,-507.324,-994.141,0.000
1742814843.227,-1000.000,-991.699,-541.016,-1000.000,0.000
1742814843.231,-596.191,-1000.000,-448.730,-587.891,0.000
1742814843.235,-607.910,-1000.000,-378.906,-584.961,0.000
1742814843.239,-1000.000,-990.234,-480.957,-989.258,0.000
1742814843.243,-1000.000,-982.910,-527.832,-1000.000,0.000
1742814843.247,-756.348,-995.117,-414.551,-744.629,0.000
1742814843.251,-358.398,-1000.000,-406.250,-340.820,0.000
1742814843.254,-655.273,-996.094,-495.605,-646.484,0.000
1742814843.258,-1000.000,-984.375,-509.766,-1000.000,0.000
1742814843.262,-1000.000,-990.723,-490.723,-1000.000,0.000
1742814843.266,-966.309,-1000.000,-478.516,-966.309,0.000
1742814843.270,-923.828,-1000.000,-588.867,-925.781,0.000
1742814843.274,-996.094,-1000.000,-644.043,-995.117,0.000
1742814843.278,-994.141,-995.605,-451.660,-993.164,0.000
1742814843.282,-1000.000,-986.816,-453.613,-1000.000,0.000
1742814843.286,-988.281,-986.328,-459.473,-987.305,0.000
1742814843.290,-566.895,-997.559,-441.895,-545.898,0.000
1742814843.294,-464.844,-1000.000,-415.527,-433.105,0.000
1742814843.297,-883.789,-994.141,-447.266,-870.605,0.000
1742814843.301,-1000.000,-983.398,-485.352,-1000.000,0.000
1742814843.305,-904.785,-989.258,-455.566,-899.902,0.000
1742814843.309,-765.137,-1000.000,-526.855,-759.766,0.000
1742814843.313,-844.727,-1000.000,-534.180,-841.309,0.000
1742814843.317,-976.562,-997.559,-498.047,-976.074,0.000
1742814843.321,-1000.000,-988.281,-425.781,-1000.000,0.000
1742814843.325,-874.512,-990.723,-395.020,-871.094,0.000
1742814843.329,-611.816,-1000.000,-499.512,-601.074,0.000
1742814843.333,-831.055,-1000.000,-548.340,-814.941,0.000
1742814843.336,-984.375,-998.047,-417.480,-975.586,0.000
1742814843.340,-965.820,-989.746,-382.324,-965.332,0.000
1742814843.344,-1000.000,-982.422,-520.020,-1000.000,0.000
1742814843.348,-778.320,-991.699,-538.086,-768.555,0.000
1742814843.352,-444.336,-1000.000,-432.129,-433.594,0.000
1742814843.356,-816.895,-1000.000,-479.980,-815.918,0.000
1742814843.360,-1000.000,-1000.000,-638.672,-1000.000,0.000
1742814843.364,-988.281,-1000.000,-662.598,-988.770,0.000
1742814843.368,-666.504,-1000.000,-415.527,-669.922,0.000
1742814843.372,-337.402,-1000.000,-419.434,-326.172,0.000
1742814843.375,-731.445,-997.070,-457.520,-717.285,0.000
1742814843.379,-1000.000,-984.863,-412.109,-1000.000,0.000
1742814843.383,-956.543,-982.910,-414.062,-952.637,0.000
1742814843.387,-796.387,-995.605,-490.234,-794.922,0.000
1742814843.391,-692.871,-1000.000,-500.488,-696.289,0.000
1742814843.395,-805.664,-1000.000,-409.668,-801.758,0.000
1742814843.399,-987.305,-990.234,-432.617,-985.840,0.000
1742814843.403,-996.094,-991.699,-522.949,-996.582,0.000
1742814843.407,-1000.000,-1000.000,-615.723,-1000.000,0.000
1742814843.411,-659.180,-1000.000,-518.555,-660.645,0.000
1742814843.415,-547.852,-1000.000,-381.836,-529.297,0.000
1742814843.418,-942.383,-992.188,-458.496,-926.270,0.000
1742814843.422,-1000.000,-981.445,-504.883,-1000.000,0.000
1742814843.426,-837.402,-990.723,-457.031,-829.102,0.000
1742814843.430,-393.066,-1000.000,-407.227,-374.512,0.000
1742814843.434,-606.445,-997.559,-500.488,-589.355,0.000
1742814843.438,-1000.000,-987.793,-533.203,-1000.000,0.000
1742814843.442,-1000.000,-980.469,-423.340,-1000.000,0.000
1742814843.446,-973.145,-989.746,-456.543,-964.355,0.000
1742814843.450,-937.012,-1000.000,-599.609,-926.758,0.000
1742814843.454,-991.699,-1000.000,-650.391,-990.234,0.000
1742814843.457,-1000.000,-1000.000,-468.262,-1000.000,0.000
1742814843.461,-981.445,-990.723,-410.156,-980.957,0.000
1742814843.465,-1000.000,-983.398,-535.156,-1000.000,0.000
1742814843.469,-689.941,-995.605,-536.621,-687.500,0.000
1742814843.473,-411.133,-1000.000,-401.855,-408.203,0.000
1742814843.477,-820.312,-996.582,-435.059,-818.359,0.000
1742814843.481,-1000.000,-984.863,-490.723,-1000.000,0.000
1742814843.485,-906.738,-988.770,-426.270,-909.668,0.000
1742814843.489,-541.992,-1000.000,-435.059,-541.992,0.000
1742814843.493,-673.828,-1000.000,-519.531,-659.180,0.000
1742814843.497,-999.512,-1000.000,-524.414,-991.211,0.000
1742814843.500,-1000.000,-996.094,-527.344,-1000.000,0.000
1742814843.504,-943.848,-994.141,-472.656,-940.430,0.000
1742814843.508,-650.391,-999.512,-471.191,-636.230,0.000
1742814843.512,-750.488,-1000.000,-539.551,-736.816,0.000
1742814843.516,-966.797,-996.094,-433.594,-958.496,0.000
1742814843.520,-965.820,-988.281,-393.555,-964.355,0.000
1742814843.524,-1000.000,-981.934,-496.582,-1000.000,0.000
1742814843.528,-803.223,-990.723,-524.902,-800.781,0.000
1742814843.532,-382.324,-1000.000,-421.387,-363.281,0.000
1742814843.536,-695.312,-998.047,-409.668,-673.828,0.000
1742814843.540,-1000.000,-991.211,-508.789,-1000.000,0.000
1742814843.543,-1000.000,-997.070,-567.871,-1000.000,0.000
1742814843.547,-912.598,-1000.000,-503.418,-910.156,0.000
1742814843.551,-738.281,-1000.000,-466.797,-741.211,0.000
1742814843.555,-876.465,-997.559,-605.469,-877.930,0.000
1742814843.559,-1000.000,-997.559,-658.203,-1000.000,0.000
1742814843.563,-985.840,-995.117,-407.715,-987.305,0.000
1742814843.567,-687.988,-997.070,-428.223,-692.871,0.000
1742814843.571,-490.234,-1000.000,-485.352,-496.094,0.000
1742814843.575,-713.379,-1000.000,-434.082,-711.914,0.000
1742814843.579,-955.078,-993.164,-397.949,-949.219,0.000
1742814843.583,-1000.000,-982.422,-437.012,-1000.000,0.000
1742814843.586,-909.180,-988.281,-492.188,-902.832,0.000
1742814843.590,-709.473,-1000.000,-532.715,-689.453,0.000
1742814843.594,-838.379,-1000.000,-468.750,-819.824,0.000
1742814843.598,-983.398,-991.699,-436.035,-975.098,0.000
1742814843.602,-1000.000,-989.258,-564.453,-1000.000,0.000
1742814843.606,-849.121,-998.047,-474.609,-844.727,0.000
1742814843.610,-356.934,-1000.000,-395.996,-344.238,0.000
1742814843.614,-556.641,-1000.000,-507.324,-536.621,0.000
1742814843.618,-1000.000,-999.512,-532.715,-1000.000,0.000
1742814843.622,-1000.000,-986.816,-411.133,-1000.000,0.000
1742814843.625,-832.031,-989.746,-410.645,-831.543,0.000
1742814843.629,-609.863,-1000.000,-512.207,-609.375,0.000
1742814843.633,-774.414,-1000.000,-549.805,-759.277,0.000
1742814843.637,-964.844,-1000.000,-504.883,-954.102,0.000
1742814843.641,-986.816,-1000.000,-491.699,-987.793,0.000
1742814843.645,-1000.000,-1000.000,-601.562,-1000.000,0.000
1742814843.649,-830.566,-1000.000,-626.953,-826.660,0.000
1742814843.653,-467.285,-1000.000,-416.992,-451.660,0.000
1742814843.657,-745.605,-998.047,-413.574,-739.258,0.000
1742814843.661,-1000.000,-984.863,-473.145,-1000.000,0.000
1742814843.665,-930.664,-986.816,-428.711,-937.012,0.000
1742814843.668,-509.277,-1000.000,-416.992,-525.391,0.000
1742814843.672,-516.113,-1000.000,-496.582,-520.508,0.000
1742814843.676,-951.660,-997.559,-486.328,-951.172,0.000
1742814843.680,-1000.000,-984.863,-427.246,-1000.000,0.000
1742814843.684,-1000.000,-987.305,-501.465,-1000.000,0.000
1742814843.688,-889.648,-1000.000,-508.789,-892.578,0.000
1742814843.692,-853.027,-1000.000,-557.129,-853.027,0.000
1742814843.696,-975.586,-996.582,-467.285,-970.703,0.000
1742814843.700,-971.680,-988.770,-390.137,-970.215,0.000
1742814843.704,-1000.000,-983.398,-518.555,-1000.000,0.000
1742814843.707,-842.285,-990.723,-511.230,-841.309,0.000
1742814843.711,-377.441,-1000.000,-428.223,-366.699,0.000
1742814843.715,-580.078,-1000.000,-383.301,-554.688,0.000
1742814843.719,-985.352,-990.234,-499.512,-973.633,0.000
1742814843.723,-1000.000,-982.422,-536.621,-1000.000,0.000
1742814843.727,-744.141,-995.605,-433.105,-728.516,0.000
1742814843.731,-633.301,-1000.000,-467.285,-606.445,0.000
1742814843.735,-914.551,-1000.000,-606.445,-899.902,0.000
1742814843.739,-1000.000,-1000.000,-677.246,-1000.000,0.000
1742814843.743,-1000.000,-996.582,-452.637,-1000.000,0.000
1742814843.747,-771.484,-995.605,-424.805,-781.250,0.000
1742814843.750,-540.527,-1000.000,-475.098,-556.641,0.000
1742814843.754,-657.715,-1000.000,-423.828,-665.527,0.000
1742814843.758,-885.742,-993.164,-395.508,-884.277,0.000
1742814843.762,-1000.000,-980.469,-453.613,-1000.000,0.000
1742814843.766,-950.195,-983.887,-498.535,-948.730,0.000
1742814843.770,-487.793,-999.023,-426.758,-484.863,0.000
1742814843.774,-461.914,-1000.000,-420.410,-448.730,0.000
1742814843.778,-938.965,-999.512,-498.535,-928.711,0.000
1742814843.782,-1000.000,-1000.000,-625.977,-1000.000,0.000
1742814843.786,-999.512,-997.070,-599.609,-996.582,0.000
1742814843.789,-584.473,-999.023,-448.242,-577.637,0.000
1742814843.793,-446.777,-1000.000,-458.984,-433.594,0.000
1742814843.797,-934.570,-990.234,-482.910,-925.293,0.000
1742814843.801,-1000.000,-977.539,-426.758,-1000.000,0.000
1742814843.805,-855.469,-986.328,-417.480,-848.633,0.000
1742814843.809,-622.070,-1000.000,-503.906,-604.004,0.000
1742814843.813,-637.207,-1000.000,-532.715,-620.605,0.000
1742814843.817,-819.824,-997.559,-413.574,-809.570,0.000
1742814843.821,-1000.000,-983.887,-423.828,-1000.000,0.000
1742814843.825,-1000.000,-988.281,-608.398,-1000.000,0.000
1742814843.829,-907.715,-1000.000,-654.297,-906.738,0.000
1742814843.832,-722.168,-1000.000,-474.121,-717.285,0.000
1742814843.836,-842.285,-998.047,-385.254,-834.961,0.000
1742814843.840,-1000.000,-989.258,-539.062,-1000.000,0.000
1742814843.844,-1000.000,-993.652,-582.520,-1000.000,0.000
1742814843.848,-604.004,-1000.000,-390.137,-595.215,0.000
1742814843.852,-310.059,-1000.000,-440.918,-292.480,0.000
1742814843.856,-757.324,-996.582,-469.727,-744.629,0.000
1742814843.860,-1000.000,-982.422,-417.969,-1000.000,0.000
1742814843.864,-958.496,-982.422,-402.832,-958.496,0.000
1742814843.868,-652.344,-997.070,-458.496,-650.879,0.000
1742814843.872,-705.566,-1000.000,-532.227,-714.844,0.000
1742814843.875,-995.605,-999.023,-473.633,-1000.000,0.000
1742814843.879,-979.492,-989.258,-399.902,-978.027,0.000
1742814843.883,-1000.000,-978.516,-463.379,-1000.000,0.000
1742814843.887,-974.121,-985.352,-545.410,-972.168,0.000
1742814843.891,-515.137,-999.512,-447.266,-505.859,0.000
1742814843.895,-551.758,-1000.000,-401.855,-520.020,0.000
1742814843.899,-980.469,-994.141,-529.785,-963.867,0.000
1742814843.903,-1000.000,-988.281,-562.012,-1000.000,0.000
1742814843.907,-753.418,-993.652,-421.875,-747.559,0.000
1742814843.911,-384.766,-1000.000,-448.242,-379.395,0.000
1742814843.915,-726.562,-999.023,-552.246,-713.867,0.000
1742814843.918,-1000.000,-999.023,-570.312,-1000.000,0.000
1742814843.922,-1000.000,-998.535,-526.367,-1000.000,0.000
1742814843.926,-932.129,-997.559,-477.539,-918.457,0.000
1742814843.930,-854.980,-1000.000,-583.984,-831.055,0.000
1742814843.934,-956.055,-998.047,-623.047,-948.242,0.000
1742814843.938,-953.125,-989.746,-390.625,-945.801,0.000
1742814843.942,-1000.000,-982.422,-407.227,-1000.000,0.000
1742814843.946,-998.047,-984.375,-486.816,-996.582,0.000
1742814843.950,-523.438,-997.559,-434.082,-519.531,0.000
1742814843.954,-420.898,-1000.000,-431.152,-416.992,0.000
1742814843.957,-922.363,-998.047,-489.258,-919.922,0.000
1742814843.961,-1000.000,-990.723,-519.043,-1000.000,0.000
1742814843.965,-1000.000,-992.676,-528.809,-1000.000,0.000
1742814843.969,-718.262,-1000.000,-454.590,-686.523,0.000
1742814843.973,-535.645,-1000.000,-453.613,-465.820,0.000
1742814843.977,-921.387,-998.047,-557.617,-891.113,0.000
1742814843.981,-1000.000,-988.281,-467.285,-1000.000,0.000
1742814843.985,-875.488,-988.770,-377.441,-863.281,0.000
1742814843.989,-630.859,-1000.000,-488.770,-613.281,0.000
1742814843.993,0.000,-1000.000,-510.742,-601.074,0.000
1742814843.997,0.000,-998.047,-392.578,-772.461,0.000
1742814844.000,0.000,-988.770,-389.160,-994.141,0.000
1742814844.004,0.000,-979.004,-504.395,-1000.000,0.000
1742814844.008,0.000,-990.234,-566.895,-753.418,0.000
1742814844.012,0.000,-1000.000,-517.578,-610.840,0.000
1742814844.016,0.000,-1000.000,-481.445,-916.992,0.000
1742814844.020,0.000,-1000.000,-622.559,-1000.000,0.000
1742814844.024,0.000,-1000.000,-635.254,-968.750,0.000
1742814844.028,0.000,-1000.000,-401.367,-604.492,0.000
1742814844.032,0.000,-1000.000,-427.734,-266.113,0.000
1742814844.036,0.000,-996.582,-465.820,-668.945,0.000
1742814844.040,-1000.000,-982.910,-421.387,-1000.000,0.000
1742814844.043,-962.891,-981.445,-396.973,-960.938,0.000
1742814844.047,-729.004,-996.094,-475.098,-735.352,0.000
1742814844.051,-536.133,-1000.000,-498.535,-546.875,0.000
1742814844.055,-727.051,-998.535,-441.895,-726.562,0.000
1742814844.059,-1000.000,-999.023,-529.785,-999.023,0.000
1742814844.063,-989.746,-995.605,-506.836,-990.723,0.000
1742814844.067,-1000.000,-990.234,-568.848,-1000.000,0.000
1742814844.071,-775.391,-997.559,-551.758,-765.625,0.000
1742814844.075,-570.312,-1000.000,-378.418,-546.387,0.000
1742814844.079,-891.113,-991.211,-452.148,-878.906,0.000
1742814844.082,-1000.000,-980.469,-497.070,-1000.000,0.000
1742814844.086,-833.984,-991.211,-431.152,-819.336,0.000
1742814844.090,-370.117,-1000.000,-405.273,-336.914,0.000
1742814844.094,-557.129,-999.023,-494.629,-522.949,0.000
1742814844.098,-1000.000,-988.281,-511.719,-1000.000,0.000
1742814844.102,-1000.000,-979.004,-451.172,-1000.000,0.000
1742814844.106,-958.496,-985.840,-498.535,-957.520,0.000
1742814844.110,-922.363,-998.535,-602.539,-926.270,0.000
1742814844.114,-969.727,-1000.000,-637.207,-965.332,0.000
1742814844.118,-964.844,-998.047,-390.137,-957.031,0.000
1742814844.121,-985.352,-984.863,-432.617,-986.328,0.000
1742814844.125,-1000.000,-988.281,-558.105,-1000.000,0.000
1742814844.129,-658.691,-1000.000,-482.422,-660.645,0.000
1742814844.133,-331.543,-1000.000,-408.691,-333.008,0.000
1742814844.137,-741.699,-997.070,-434.082,-733.398,0.000
1742814844.141,-1000.000,-983.398,-491.211,-1000.000,0.000
1742814844.145,-910.156,-986.816,-437.988,-913.574,0.000
1742814844.149,-516.113,-1000.000,-437.012,-511.719,0.000
1742814844.153,-649.414,-1000.000,-507.812,-627.441,0.000
1742814844.157,-997.559,-1000.000,-593.262,-987.793,0.000
1742814844.161,-1000.000,-991.699,-541.992,-1000.000,0.000
1742814844.164,-919.922,-985.840,-399.902,-921.387,0.000
1742814844.168,-650.879,-998.535,-460.938,-656.738,0.000
1742814844.172,-562.988,-1000.000,-490.234,-562.988,0.000
1742814844.176,-769.531,-998.535,-402.832,-764.648,0.000
1742814844.180,-987.305,-986.816,-390.625,-984.863,0.000
1742814844.184,-1000.000,-987.793,-517.090,-1000.000,0.000
1742814844.188,-804.688,-997.559,-532.227,-801.270,0.000
1742814844.192,-388.672,-1000.000,-428.223,-375.977,0.000
1742814844.196,-692.871,-998.047,-403.320,-676.758,0.000
1742814844.200,-1000.000,-996.094,-583.984,-1000.000,0.000
1742814844.204,-1000.000,-1000.000,-702.637,-1000.000,0.000
1742814844.207,-932.129,-1000.000,-491.211,-931.641,0.000
1742814844.211,-507.324,-1000.000,-392.578,-505.859,0.000
1742814844.215,-684.570,-997.070,-531.738,-678.711,0.000
1742814844.219,-1000.000,-984.863,-559.082,-1000.000,0.000
1742814844.223,-1000.000,-979.004,-397.949,-999.023,0.000
1742814844.227,-778.809,-991.211,-444.824,-775.879,0.000
1742814844.231,-565.918,-1000.000,-484.863,-562.988,0.000
1742814844.235,-719.238,-1000.000,-434.082,-708.008,0.000
1742814844.239,-957.031,-994.629,-453.613,-947.754,0.000
1742814844.243,-1000.000,-993.164,-520.508,-1000.000,0.000
1742814844.247,-1000.000,-998.535,-578.125,-1000.000,0.000
1742814844.250,-664.551,-1000.000,-492.188,-649.414,0.000
1742814844.254,-523.926,-1000.000,-407.227,-485.840,0.000
1742814844.258,-919.434,-990.234,-464.355,-900.391,0.000
1742814844.262,-1000.000,-979.980,-500.000,-1000.000,0.000
1742814844.266,-849.121,-991.211,-432.129,-845.215,0.000
1742814844.270,-391.602,-1000.000,-399.414,-376.953,0.000
1742814844.274,-552.246,-1000.000,-491.211,-529.785,0.000
1742814844.278,-1000.000,-989.746,-509.766,-1000.000,0.000
1742814844.282,-1000.000,-979.004,-418.945,-1000.000,0.000
1742814844.286,-860.352,-987.793,-406.738,-847.168,0.000
1742814844.290,-661.621,-1000.000,-498.535,-632.812,0.000
1742814844.293,-897.949,-1000.000,-570.801,-877.441,0.000
1742814844.297,-1000.000,-1000.000,-512.695,-1000.000,0.000
1742814844.301,-969.238,-1000.000,-484.375,-968.262,0.000
1742814844.305,-1000.000,-1000.000,-602.051,-1000.000,0.000
1742814844.309,-811.035,-1000.000,-618.164,-805.664,0.000
1742814844.313,-438.965,-1000.000,-401.367,-411.133,0.000
1742814844.317,-743.652,-998.047,-409.668,-722.168,0.000
1742814844.321,0.000,-984.863,-465.820,-1000.000,0.000
1742814844.325,0.000,-985.352,-430.664,-945.801,0.000
1742814844.329,0.000,-999.023,-415.527,-533.203,0.000
1742814844.333,0.000,-1000.000,-452.148,-375.488,0.000
1742814844.336,0.000,-995.605,-512.207,-827.148,0.000
1742814844.340,0.000,-995.605,-535.156,-1000.000,0.000
1742814844.344,0.000,-996.582,-466.797,-964.355,0.000
1742814844.348,0.000,-997.070,-454.102,-690.430,0.000
1742814844.352,0.000,-1000.000,-586.914,-778.809,0.000
1742814844.356,0.000,-998.535,-495.117,-1000.000,0.000
1742814844.360,0.000,-988.770,-373.535,-969.727,0.000
1742814844.364,0.000,-977.539,-478.027,-1000.000,0.000
1742814844.368,-1000.000,-986.328,-526.855,-844.238,0.000
1742814844.372,-951.660,-1000.000,-451.172,-394.043,0.000
1742814844.375,-549.316,-1000.000,-404.785,-567.383,0.000
1742814844.379,-405.762,-989.258,-497.559,-964.844,0.000
1742814844.383,-847.168,-979.492,-569.336,-1000.000,0.000
1742814844.387,-1000.000,-992.676,-517.090,-979.980,0.000
1742814844.391,-963.867,-1000.000,-488.281,-805.176,0.000
1742814844.395,-692.871,-1000.000,-602.539,-854.004,0.000
1742814844.399,-786.133,-995.117,-607.910,-1000.000,0.000
1742814844.403,-1000.000,-984.863,-389.160,-1000.000,0.000
1742814844.407,-970.703,-992.676,-425.293,-794.434,0.000
1742814844.411,-1000.000,-1000.000,-530.762,-743.164,0.000
1742814844.414,-854.492,-1000.000,-476.562,-843.750,0.000
1742814844.418,-887.207,-995.117,-382.812,-876.465,0.000
1742814844.422,-1000.000,-983.887,-446.777,-1000.000,0.000
1742814844.426,-964.355,-984.863,-483.398,-960.938,0.000
1742814844.430,-569.336,-998.047,-464.355,-542.969,0.000
1742814844.434,-689.941,-1000.000,-510.742,-665.039,0.000
1742814844.438,-1000.000,-999.023,-509.766,-1000.000,0.000
1742814844.442,-1000.000,-995.117,-594.238,-1000.000,0.000
1742814844.446,-920.410,-995.605,-532.715,-923.340,0.000
1742814844.450,-433.594,-1000.000,-393.555,-438.477,0.000
1742814844.453,-453.125,-1000.000,-464.844,-440.430,0.000
1742814844.457,-960.449,-992.188,-490.234,-951.172,0.000
1742814844.461,-1000.000,-981.934,-421.875,-1000.000,0.000
1742814844.465,-976.562,-985.352,-452.148,-975.098,0.000
1742814844.469,-912.109,-997.070,-554.199,-913.086,0.000
1742814844.473,-704.590,-1000.000,-509.277,-704.102,0.000
1742814844.477,-803.711,-996.582,-443.359,-799.805,0.000
1742814844.481,-1000.000,-995.605,-515.137,-1000.000,0.000
1742814844.485,-1000.000,-1000.000,-634.766,-1000.000,0.000
1742814844.489,-870.605,-1000.000,-652.832,-872.070,0.000
1742814844.493,-433.594,-1000.000,-409.180,-411.621,0.000
1742814844.496,-654.785,-1000.000,-399.414,-616.211,0.000
1742814844.500,-1000.000,-987.793,-476.562,-1000.000,0.000
1742814844.504,-970.703,-984.375,-446.777,-973.145,0.000
1742814844.508,-600.098,-998.047,-411.621,-592.773,0.000
1742814844.512,-352.051,-1000.000,-448.730,-318.359,0.000
1742814844.516,-778.809,-996.094,-463.379,-749.512,0.000
1742814844.520,-1000.000,-982.910,-428.223,-1000.000,0.000
1742814844.524,-996.582,-984.863,-478.516,-996.094,0.000
1742814844.528,-936.035,-997.559,-508.789,-929.688,0.000
1742814844.532,-903.320,-1000.000,-604.004,-899.902,0.000
1742814844.536,-978.516,-999.512,-535.645,-968.262,0.000
1742814844.539,-968.262,-990.234,-369.141,-959.961,0.000
1742814844.543,-1000.000,-981.934,-459.473,-1000.000,0.000
1742814844.547,-849.609,-991.699,-500.977,-848.145,0.000
1742814844.551,-395.508,-1000.000,-424.805,-380.371,0.000
1742814844.555,-570.801,-1000.000,-388.672,-546.387,0.000
1742814844.559,-962.891,-990.234,-487.305,-953.125,0.000
1742814844.563,-1000.000,-979.004,-532.715,-1000.000,0.000
1742814844.567,-821.289,-991.211,-424.316,-816.406,0.000
1742814844.571,-492.188,-1000.000,-436.035,-474.609,0.000
1742814844.575,-784.180,-1000.000,-587.891,-769.531,0.000
1742814844.578,-1000.000,-1000.000,-650.879,-1000.000,0.000
1742814844.582,-1000.000,-1000.000,-508.789,-1000.000,0.000
1742814844.586,-869.141,-1000.000,-457.031,-870.117,0.000
1742814844.590,-699.707,-1000.000,-451.660,-699.707,0.000
1742814844.594,-749.023,-1000.000,-437.012,-742.676,0.000
1742814844.598,-883.301,-992.676,-409.180,-877.930,0.000
1742814844.602,-1000.000,-981.445,-423.828,-1000.000,0.000
1742814844.606,-988.281,-982.422,-483.887,-989.258,0.000
1742814844.610,-573.242,-997.070,-444.824,-567.383,0.000
1742814844.614,-421.387,-1000.000,-416.016,-398.926,0.000
1742814844.618,-860.352,-992.188,-459.961,-847.168,0.000
1742814844.621,-1000.000,-994.141,-546.875,-1000.000,0.000
1742814844.625,-928.223,-1000.000,-489.258,-927.734,0.000
1742814844.629,-486.328,-1000.000,-409.668,-474.121,0.000
1742814844.633,-469.238,-1000.000,-467.773,-442.383,0.000
1742814844.637,-939.453,-1000.000,-540.039,-926.758,0.000
1742814844.641,-1000.000,-992.676,-432.129,-1000.000,0.000
1742814844.645,-901.855,-986.816,-385.254,-899.902,0.000
1742814844.649,-684.570,-998.047,-486.816,-671.875,0.000
1742814844.653,-657.227,-1000.000,-507.324,-636.230,0.000
1742814844.657,-825.684,-997.070,-416.992,-814.453,0.000
1742814844.661,-1000.000,-984.863,-393.066,-999.512,0.000
1742814844.664,-1000.000,-981.445,-500.000,-1000.000,0.000
1742814844.668,-933.594,-996.094,-581.055,-926.270,0.000
1742814844.672,-834.473,-1000.000,-508.789,-809.570,0.000
1742814844.676,-942.383,-1000.000,-460.938,-928.711,0.000
1742814844.680,-1000.000,-990.723,-595.703,-1000.000,0.000
1742814844.684,-1000.000,-988.281,-629.883,-1000.000,0.000
1742814844.688,-678.223,-998.535,-400.879,-680.176,0.000
1742814844.692,-393.066,-1000.000,-459.473,-378.906,0.000
1742814844.696,0.000,-1000.000,-508.301,-778.809,0.000
1742814844.700,0.000,-990.723,-419.434,-1000.000,0.000
1742814844.704,0.000,-980.957,-401.367,-991.699,0.000
1742814844.707,0.000,-993.164,-460.938,-790.039,0.000
1742814844.711,0.000,-1000.000,-510.254,-607.910,0.000
1742814844.715,0.000,-1000.000,-514.160,-841.797,0.000
1742814844.719,0.000,-1000.000,-483.398,-1000.000,0.000
1742814844.723,0.000,-988.770,-422.852,-983.887,0.000
1742814844.727,0.000,-987.793,-553.711,-1000.000,0.000
1742814844.731,0.000,-999.023,-513.672,-638.184,0.000
1742814844.735,0.000,-1000.000,-381.836,-442.871,0.000
1742814844.739,0.000,-993.652,-464.844,-877.930,0.000
1742814844.743,-1000.000,-983.398,-501.465,-1000.000,0.000
1742814844.746,-814.453,-992.188,-420.898,-825.195,0.000
1742814844.750,-544.434,-1000.000,-464.844,-558.594,0.000
1742814844.754,-777.832,-1000.000,-556.152,-776.367,0.000
1742814844.758,-1000.000,-994.141,-560.547,-1000.000,0.000
1742814844.762,-1000.000,-992.676,-520.508,-1000.000,0.000
1742814844.766,-969.727,-999.512,-488.281,-971.191,0.000
1742814844.770,-937.988,-1000.000,-599.609,-938.477,0.000
1742814844.774,-896.973,-1000.000,-609.863,-905.762,0.000
1742814844.778,-867.676,-998.047,-382.812,-881.836,0.000
1742814844.782,-1000.000,-987.793,-412.598,-1000.000,0.000
1742814844.785,-999.512,-985.840,-468.750,-999.023,0.000
1742814844.789,-555.664,-997.559,-438.477,-546.387,0.000
1742814844.793,-308.594,-1000.000,-413.086,-264.160,0.000
1742814844.797,-755.859,-997.070,-444.824,-712.891,0.000
1742814844.801,-1000.000,-986.328,-486.816,-1000.000,0.000
1742814844.805,-965.820,-985.840,-456.055,-955.566,0.000
1742814844.809,-790.039,-997.559,-501.465,-752.930,0.000
1742814844.813,-777.832,-1000.000,-505.371,-736.816,0.000
1742814844.817,-965.332,-1000.000,-578.125,-948.242,0.000
1742814844.821,-1000.000,-992.676,-524.414,-1000.000,0.000
1742814844.825,-931.152,-987.793,-397.461,-923.828,0.000
1742814844.828,-668.457,-999.023,-472.168,-644.043,0.000
1742814844.832,-527.344,-1000.000,-482.422,-494.629,0.000
1742814844.836,-702.148,-1000.000,-411.621,-672.852,0.000
1742814844.840,-968.262,-991.211,-407.715,-956.055,0.000
1742814844.844,-1000.000,-978.516,-514.648,-1000.000,0.000
1742814844.848,-781.250,-989.258,-519.531,-771.484,0.000
1742814844.852,-384.277,-1000.000,-454.102,-359.863,0.000
1742814844.856,-768.555,-1000.000,-491.211,-753.906,0.000
1742814844.860,-1000.000,-1000.000,-625.488,-1000.000,0.000
1742814844.864,-1000.000,-1000.000,-700.195,-1000.000,0.000
1742814844.868,-819.824,-1000.000,-458.984,-815.918,0.000
1742814844.871,-292.969,-1000.000,-421.875,-283.203,0.000
1742814844.875,-610.352,-996.582,-458.008,-594.238,0.000
1742814844.879,-1000.000,-982.422,-420.898,-1000.000,0.000
1742814844.883,-990.234,-977.539,-403.320,-990.723,0.000
1742814844.887,-750.000,-992.188,-435.547,-739.746,0.000
1742814844.891,-504.883,-1000.000,-487.793,-496.582,0.000
1742814844.895,-584.961,-1000.000,-421.875,-583.496,0.000
1742814844.899,-880.859,-990.723,-428.711,-874.512,0.000
1742814844.903,-1000.000,-988.281,-506.348,-1000.000,0.000
1742814844.907,-1000.000,-999.512,-607.910,-1000.000,0.000
1742814844.910,-666.992,-1000.000,-551.270,-664.551,0.000
1742814844.914,-397.949,-1000.000,-383.789,-386.230,0.000
1742814844.918,-841.797,-993.164,-458.496,-834.473,0.000
1742814844.922,-1000.000,-986.328,-508.301,-1000.000,0.000
1742814844.926,-854.980,-992.188,-425.293,-842.285,0.000
1742814844.930,-377.930,-1000.000,-395.996,-353.516,0.000
1742814844.934,-486.328,-1000.000,-490.723,-456.543,0.000
1742814844.938,-988.281,-988.770,-516.602,-978.027,0.000
1742814844.942,-1000.000,-975.586,-408.203,-1000.000,0.000
1742814844.946,-879.395,-985.840,-419.922,-868.652,0.000
1742814844.950,-828.613,-1000.000,-598.145,-815.430,0.000
1742814844.953,-989.258,-1000.000,-672.852,-985.840,0.000
1742814844.957,-1000.000,-999.512,-471.191,-1000.000,0.000
1742814844.961,-975.586,-986.328,-396.973,-975.098,0.000
1742814844.965,-1000.000,-979.980,-468.262,-1000.000,0.000
1742814844.969,-712.891,-995.117,-471.191,-705.566,0.000
1742814844.973,-315.918,-1000.000,-407.715,-295.898,0.000
1742814844.977,-728.516,-999.023,-477.051,-711.914,0.000
1742814844.981,-1000.000,-989.258,-505.371,-1000.000,0.000
1742814844.985,-948.730,-985.840,-421.387,-951.660,0.000
1742814844.989,-527.344,-999.023,-411.133,-527.832,0.000
1742814844.993,-363.770,-1000.000,-460.938,-347.656,0.000
1742814844.996,-844.238,-999.023,-562.500,-833.008,0.000
1742814845.000,-1000.000,-995.117,-503.906,-1000.000,0.000
1742814845.004,-946.777,-985.840,-399.414,-945.312,0.000
1742814845.008,-681.641,-996.094,-464.844,-687.012,0.000
1742814845.012,-719.727,-999.512,-548.828,-724.609,0.000
1742814845.016,-890.137,-996.582,-437.988,-889.648,0.000
1742814845.020,-935.547,-989.258,-371.094,-934.570,0.000
1742814845.024,-1000.000,-976.074,-491.211,-1000.000,0.000
1742814845.028,-815.430,-985.352,-516.113,-816.895,0.000
1742814845.032,-404.297,-1000.000,-452.148,-396.484,0.000
1742814845.036,-742.188,-1000.000,-479.980,-730.469,0.000
1742814845.039,-1000.000,-989.746,-542.969,-1000.000,0.000
1742814845.043,-993.652,-991.211,-598.633,-993.652,0.000
1742814845.047,-957.031,-1000.000,-511.230,-956.543,0.000
1742814845.051,-750.000,-1000.000,-455.078,-747.070,0.000
1742814845.055,-817.871,-1000.000,-582.520,-810.547,0.000
1742814845.059,-1000.000,-994.629,-624.512,-1000.000,0.000
1742814845.063,-1000.000,-985.840,-389.648,-1000.000,0.000
1742814845.067,-778.809,-992.676,-423.340,-766.113,0.000
1742814845.071,-550.293,-1000.000,-485.352,-544.922,0.000
1742814845.075,-560.547,-1000.000,-421.875,-544.922,0.000
1742814845.078,-829.102,-997.559,-395.996,-805.176,0.000
1742814845.082,-1000.000,-983.398,-437.500,-1000.000,0.000
1742814845.086,-974.609,-982.910,-532.227,-970.215,0.000
1742814845.090,-761.230,-998.535,-547.363,-740.723,0.000
1742814845.094,-772.461,-1000.000,-501.465,-750.000,0.000
1742814845.098,-993.164,-996.094,-485.352,-986.816,0.000
1742814845.102,-1000.000,-991.211,-559.570,-1000.000,0.000
1742814845.106,-912.109,-995.605,-511.719,-907.715,0.000
1742814845.110,-411.133,-1000.000,-402.832,-402.832,0.000
1742814845.114,-388.184,-1000.000,-461.426,-354.004,0.000
1742814845.118,-917.480,-991.699,-483.887,-895.508,0.000
1742814845.121,-1000.000,-980.469,-411.621,-1000.000,0.000
1742814845.125,-898.438,-985.840,-411.133,-891.602,0.000
1742814845.129,-673.828,-999.023,-508.789,-652.832,0.000
1742814845.133,-598.145,-1000.000,-539.551,-558.594,0.000
1742814845.137,-832.031,-1000.000,-497.070,-812.012,0.000
1742814845.141,-1000.000,-1000.000,-500.488,-1000.000,0.000
1742814845.145,-1000.000,-1000.000,-611.816,-1000.000,0.000
1742814845.149,-851.074,-1000.000,-635.254,-847.656,0.000
1742814845.153,-354.492,-1000.000,-399.902,-333.984,0.000
1742814845.157,-561.035,-1000.000,-414.062,-534.668,0.000
1742814845.160,-994.629,-987.793,-459.961,-987.793,0.000
1742814845.164,-984.375,-981.445,-441.406,-979.492,0.000
1742814845.168,-569.824,-997.070,-424.805,-556.152,0.000
1742814845.172,-249.512,-1000.000,-443.848,-227.051,0.000
1742814845.176,-711.426,-995.605,-489.258,-690.430,0.000
1742814845.180,-1000.000,-984.375,-500.000,-1000.000,0.000
1742814845.184,-1000.000,-986.816,-535.645,-1000.000,0.000
1742814845.188,-875.000,-998.047,-508.301,-860.352,0.000
1742814845.192,-816.895,-997.559,-583.496,-799.316,0.000
1742814845.196,-904.785,-997.070,-524.414,-902.344,0.000
1742814845.200,-901.367,-989.258,-375.488,-898.926,0.000
1742814845.203,-1000.000,-983.398,-485.840,-1000.000,0.000
1742814845.207,-827.637,-997.070,-496.582,-826.660,0.000
1742814845.211,-313.965,-1000.000,-425.781,-295.898,0.000
1742814845.215,-435.547,-1000.000,-394.043,-399.902,0.000
1742814845.219,-906.250,-988.770,-501.953,-891.602,0.000
1742814845.223,-1000.000,-974.121,-546.875,-1000.000,0.000
1742814845.227,-804.199,-990.723,-446.289,-797.363,0.000
1742814845.231,-627.930,-1000.000,-485.840,-606.934,0.000
1742814845.235,-834.961,-1000.000,-610.840,-813.477,0.000
1742814845.239,-1000.000,-1000.000,-658.691,-1000.000,0.000
1742814845.242,-1000.000,-988.281,-409.180,-1000.000,0.000
1742814845.246,-787.598,-989.258,-402.832,-770.020,0.000
1742814845.250,-543.457,-1000.000,-475.586,-534.668,0.000
1742814845.254,-535.645,-1000.000,-428.711,-535.645,0.000
1742814845.258,-780.762,-994.629,-392.578,-774.414,0.000
1742814845.262,-1000.000,-988.770,-481.934,-1000.000,0.000
1742814845.266,-974.121,-987.793,-500.488,-975.586,0.000
1742814845.270,-492.188,-996.582,-414.062,-499.023,0.000
1742814845.274,-343.262,-1000.000,-444.336,-332.520,0.000
1742814845.278,-863.770,-999.512,-503.418,-849.609,0.000
1742814845.282,-1000.000,-997.559,-625.488,-1000.000,0.000
1742814845.285,-899.414,-994.141,-574.219,-901.367,0.000
1742814845.289,-418.945,-999.023,-393.555,-424.316,0.000
1742814845.293,-354.004,-1000.000,-454.102,-333.008,0.000
1742814845.297,-875.977,-988.770,-463.379,-856.934,0.000
1742814845.301,-1000.000,-973.633,-407.715,-1000.000,0.000
1742814845.305,-898.926,-979.980,-413.086,-897.461,0.000
1742814845.309,-680.664,-998.047,-482.910,-672.852,0.000
1742814845.313,-585.449,-1000.000,-513.184,-571.289,0.000
1742814845.317,-780.273,-998.535,-465.332,-770.508,0.000
1742814845.321,-1000.000,-993.652,-458.008,-1000.000,0.000
1742814845.324,-1000.000,-995.117,-604.980,-1000.000,0.000
1742814845.328,-980.469,-1000.000,-700.195,-977.539,0.000
1742814845.332,-665.527,-1000.000,-467.773,-644.043,0.000
1742814845.336,-656.738,-1000.000,-402.832,-632.812,0.000
1742814845.340,-978.516,-987.793,-441.406,-973.145,0.000
1742814845.344,-1000.000,-979.980,-431.641,-1000.000,0.000
1742814845.348,-638.184,-995.117,-416.016,-645.508,0.000
1742814845.352,0.000,-1000.000,-462.891,-304.688,0.000
1742814845.356,0.000,-994.629,-489.258,-702.637,0.000
1742814845.360,0.000,-980.957,-420.410,-1000.000,0.000
1742814845.364,0.000,-976.074,-401.855,-994.141,0.000
1742814845.367,0.000,-990.723,-469.238,-757.324,0.000
1742814845.371,0.000,-1000.000,-539.551,-722.656,0.000
1742814845.375,0.000,-1000.000,-498.047,-961.426,0.000
1742814845.379,0.000,-996.094,-434.082,-992.676,0.000
1742814845.383,0.000,-980.469,-442.383,-992.188,0.000
1742814845.387,0.000,-980.957,-561.523,-1000.000,0.000
1742814845.391,0.000,-998.047,-490.234,-665.527,0.000
1742814845.395,0.000,-1000.000,-378.906,-464.844,0.000
1742814845.399,-864.746,-991.699,-479.492,-853.516,0.000
1742814845.403,-1000.000,-979.980,-521.973,-1000.000,0.000
1742814845.407,-848.633,-990.723,-433.594,-844.727,0.000
1742814845.410,-402.832,-1000.000,-416.016,-387.207,0.000
1742814845.414,-554.199,-1000.000,-509.766,-535.645,0.000
1742814845.418,-1000.000,-998.535,-585.449,-1000.000,0.000
1742814845.422,-1000.000,-997.559,-500.488,-1000.000,0.000
1742814845.426,-956.543,-997.559,-463.379,-955.078,0.000
1742814845.430,-943.848,-997.559,-585.938,-941.895,0.000
1742814845.434,-894.531,-1000.000,-622.070,-883.301,0.000
1742814845.438,-863.770,-997.559,-394.531,-846.680,0.000
1742814845.442,-1000.000,-984.863,-409.180,-999.512,0.000
1742814845.446,-1000.000,-980.957,-483.398,-1000.000,0.000
1742814845.450,-600.586,-996.094,-449.219,-592.773,0.000
1742814845.453,-303.711,-1000.000,-407.227,-277.344,0.000
1742814845.457,-733.887,-996.094,-448.730,-714.355,0.000
1742814845.461,-1000.000,-982.910,-500.977,-1000.000,0.000
1742814845.465,-1000.000,-986.816,-532.715,-1000.000,0.000
1742814845.469,-813.965,-998.047,-497.070,-807.129,0.000
1742814845.473,-469.727,-1000.000,-432.617,-455.078,0.000
1742814845.477,-811.035,-997.559,-576.172,-800.293,0.000
1742814845.481,-1000.000,-987.793,-507.812,-1000.000,0.000
1742814845.485,-937.988,-983.887,-384.766,-932.617,0.000
1742814845.489,-832.520,-996.094,-487.305,-806.641,0.000
1742814845.493,-625.488,-1000.000,-487.793,-591.309,0.000
1742814845.496,-675.293,-1000.000,-421.387,-631.836,0.000
1742814845.500,-976.074,-991.211,-404.297,-953.125,0.000
1742814845.504,-1000.000,-977.539,-495.117,-1000.000,0.000
1742814845.508,-817.871,-988.770,-556.152,-809.570,0.000
1742814845.512,-643.555,-1000.000,-522.949,-617.676,0.000
1742814845.516,-895.996,-1000.000,-474.609,-881.836,0.000
1742814845.520,-1000.000,-999.512,-598.145,-1000.000,0.000
1742814845.524,-1000.000,-994.141,-648.438,-1000.000,0.000
1742814845.528,-719.238,-996.582,-411.133,-734.375,0.000
1742814845.532,-269.531,-1000.000,-415.039,-285.645,0.000
1742814845.535,-632.324,-996.582,-461.914,-629.395,0.000
1742814845.539,-1000.000,-984.863,-416.016,-1000.000,0.000
1742814845.543,-990.723,-983.398,-450.195,-992.188,0.000
1742814845.547,-958.008,-992.676,-508.789,-950.684,0.000
1742814845.551,-677.246,-999.512,-479.492,-658.691,0.000
1742814845.555,-619.629,-1000.000,-424.805,-573.242,0.000
1742814845.559,-940.430,-998.535,-476.562,-911.621,0.000
1742814845.563,-1000.000,-996.094,-516.113,-1000.000,0.000
1742814845.567,-1000.000,-992.676,-583.496,-1000.000,0.000
1742814845.571,-648.438,-997.070,-536.133,-639.648,0.000
1742814845.575,-344.238,-1000.000,-375.488,-314.941,0.000
1742814845.578,-798.828,-995.117,-443.848,-780.273,0.000
1742814845.582,-1000.000,-981.934,-485.840,-1000.000,0.000
1742814845.586,-853.027,-989.258,-414.062,-848.633,0.000
1742814845.590,-362.305,-1000.000,-401.367,-364.258,0.000
1742814845.594,-465.820,-1000.000,-476.562,-457.031,0.000
1742814845.598,-989.746,-989.746,-544.434,-981.445,0.000
1742814845.602,-1000.000,-988.770,-533.691,-1000.000,0.000
1742814845.606,-964.844,-997.559,-475.098,-962.891,0.000
1742814845.610,-949.707,-999.023,-597.168,-946.289,0.000
1742814845.614,-954.102,-1000.000,-668.457,-948.730,0.000
1742814845.617,-926.758,-998.047,-394.531,-916.992,0.000
1742814845.621,-994.141,-985.352,-387.207,-993.164,0.000
1742814845.625,-1000.000,-981.445,-450.684,-1000.000,0.000
1742814845.629,-602.539,-996.094,-416.992,-603.516,0.000
1742814845.633,-291.016,-1000.000,-407.227,-281.738,0.000
1742814845.637,-702.637,-995.605,-430.176,-687.500,0.000
1742814845.641,-1000.000,-981.445,-476.074,-1000.000,0.000
1742814845.645,-956.055,-982.910,-431.152,-956.543,0.000
1742814845.649,-639.648,-998.047,-442.383,-628.906,0.000
1742814845.653,-663.086,-1000.000,-497.559,-646.484,0.000
1742814845.657,-965.332,-1000.000,-639.160,-960.938,0.000
1742814845.660,-1000.000,-997.559,-581.055,-1000.000,0.000
1742814845.664,-954.102,-988.281,-375.000,-955.566,0.000
1742814845.668,-728.027,-996.094,-441.895,-725.098,0.000
1742814845.672,-562.012,-1000.000,-474.121,-549.805,0.000
1742814845.676,-700.684,-1000.000,-427.734,-688.477,0.000
1742814845.680,-949.219,-991.699,-375.000,-942.871,0.000
1742814845.684,-1000.000,-976.562,-476.074,-1000.000,0.000
1742814845.688,-835.449,-985.840,-530.273,-837.891,0.000
1742814845.692,-378.418,-1000.000,-437.988,-377.930,0.000
1742814845.696,-597.168,-1000.000,-419.922,-598.633,0.000
1742814845.699,-989.746,-998.535,-584.961,-994.141,0.000
1742814845.703,-1000.000,-1000.000,-691.406,-1000.000,0.000
1742814845.707,-896.973,-1000.000,-466.797,-906.250,0.000
1742814845.711,-409.668,-1000.000,-413.574,-422.363,0.000
1742814845.715,-608.887,-1000.000,-479.980,-602.539,0.000
1742814845.719,-1000.000,-993.652,-435.547,-1000.000,0.000
1742814845.723,-1000.000,-979.004,-386.230,-1000.000,0.000
1742814845.727,-812.988,-988.770,-434.082,-798.828,0.000
1742814845.731,-616.211,-1000.000,-477.539,-604.980,0.000
1742814845.735,-616.211,-1000.000,-429.199,-611.328,0.000
1742814845.739,-847.656,-993.164,-389.160,-842.773,0.000
1742814845.742,-1000.000,-979.492,-449.707,-1000.000,0.000
1742814845.746,-1000.000,-990.234,-560.547,-1000.000,0.000
1742814845.750,-750.000,-1000.000,-499.512,-750.000,0.000
1742814845.754,-479.004,-1000.000,-396.484,-475.586,0.000
1742814845.758,-813.965,-994.141,-450.684,-804.688,0.000
1742814845.762,-1000.000,-982.422,-558.105,-1000.000,0.000
1742814845.766,-904.297,-989.258,-457.031,-908.691,0.000
1742814845.770,-547.363,-1000.000,-432.129,-554.688,0.000
1742814845.774,-665.527,-1000.000,-534.668,-666.992,0.000
1742814845.778,-994.141,-992.188,-500.000,-993.652,0.000
1742814845.782,-1000.000,-979.980,-420.898,-1000.000,0.000
1742814845.785,-924.805,-983.887,-420.410,-924.805,0.000
1742814845.789,-780.273,-998.047,-524.902,-773.926,0.000
1742814845.793,-904.297,-1000.000,-594.727,-897.461,0.000
1742814845.797,-1000.000,-1000.000,-515.625,-998.535,0.000
1742814845.801,-981.445,-1000.000,-483.398,-980.469,0.000
1742814845.805,-1000.000,-988.281,-594.727,-1000.000,0.000
1742814845.809,-876.953,-990.723,-663.086,-874.512,0.000
1742814845.813,-500.488,-1000.000,-454.102,-480.469,0.000
1742814845.817,-660.156,-1000.000,-409.668,-631.836,0.000
1742814845.821,-1000.000,-990.234,-469.238,-997.559,0.000
1742814845.825,-994.629,-982.910,-438.965,-990.234,0.000
1742814845.828,-840.820,-994.629,-461.914,-834.961,0.000
1742814845.832,-538.574,-1000.000,-479.980,-522.949,0.000
1742814845.836,-737.305,-996.094,-489.258,-717.285,0.000
1742814845.840,-1000.000,-996.582,-526.855,-1000.000,0.000
1742814845.844,-999.512,-993.164,-467.773,-999.023,0.000
1742814845.848,-749.512,-994.629,-427.734,-750.488,0.000
1742814845.852,-764.160,-1000.000,-574.707,-763.672,0.000
1742814845.856,-927.246,-1000.000,-513.184,-912.109,0.000
1742814845.860,-911.133,-993.652,-371.094,-899.902,0.000
1742814845.864,-1000.000,-982.422,-468.262,-1000.000,0.000
1742814845.868,-851.074,-989.258,-498.535,-850.098,0.000
1742814845.871,-368.652,-1000.000,-427.246,-342.773,0.000
1742814845.875,-472.168,-1000.000,-406.738,-413.574,0.000
1742814845.879,-916.016,-991.699,-483.887,-887.207,0.000
1742814845.883,-1000.000,-985.352,-557.129,-1000.000,0.000
1742814845.887,-974.609,-996.582,-514.160,-965.820,0.000
1742814845.891,-786.133,-1000.000,-467.773,-757.324,0.000
1742814845.895,-827.148,-1000.000,-591.309,-800.293,0.000
1742814845.899,-1000.000,-1000.000,-643.066,-1000.000,0.000
1742814845.903,-1000.000,-991.699,-416.504,-1000.000,0.000
1742814845.907,-827.148,-991.211,-416.992,-804.199,0.000
1742814845.910,-600.098,-1000.000,-468.750,-576.172,0.000
1742814845.914,-565.430,-1000.000,-424.316,-531.738,0.000
1742814845.918,-792.480,-997.559,-395.508,-760.742,0.000
1742814845.922,-1000.000,-984.375,-452.637,-1000.000,0.000
1742814845.926,-968.750,-982.422,-467.285,-967.773,0.000
1742814845.930,-611.328,-997.559,-451.172,-594.727,0.000
1742814845.934,-685.547,-1000.000,-513.184,-659.668,0.000
1742814845.938,-1000.000,-997.559,-483.887,-990.234,0.000
1742814845.942,-1000.000,-997.559,-603.027,-1000.000,0.000
1742814845.946,-929.199,-999.023,-559.570,-929.688,0.000
1742814845.949,-465.820,-1000.000,-394.043,-456.055,0.000
1742814845.953,-377.441,-1000.000,-462.402,-352.051,0.000
1742814845.957,-875.000,-992.188,-462.402,-862.305,0.000
1742814845.961,-1000.000,-979.492,-408.203,-1000.000,0.000
1742814845.965,-910.156,-983.398,-401.855,-912.598,0.000
1742814845.969,-733.398,-997.559,-506.348,-730.469,0.000
1742814845.973,-592.773,-1000.000,-530.273,-574.219,0.000
1742814845.977,-734.375,-995.605,-432.617,-719.238,0.000
1742814845.981,-997.070,-993.652,-454.102,-996.094,0.000
1742814845.985,-1000.000,-999.512,-617.676,-1000.000,0.000
1742814845.989,-912.109,-1000.000,-666.504,-911.133,0.000
1742814845.992,-429.688,-1000.000,-410.156,-422.363,0.000
1742814845.996,-591.797,-999.512,-437.012,-578.613,0.000
1742814846.000,-1000.000,-992.188,-499.512,-1000.000,0.000
1742814846.004,-1000.000,-985.352,-415.039,-1000.000,0.000
1742814846.008,-688.477,-993.652,-402.832,-685.059,0.000
1742814846.012,-332.031,-1000.000,-455.078,-314.941,0.000
1742814846.016,-716.797,-994.629,-467.285,-696.777,0.000
1742814846.020,-1000.000,-982.422,-433.594,-1000.000,0.000
1742814846.024,-994.141,-979.980,-504.883,-996.094,0.000
1742814846.028,-955.078,-991.211,-505.859,-947.754,0.000
1742814846.032,-937.500,-1000.000,-618.164,-928.711,0.000
1742814846.035,-937.988,-997.559,-578.125,-916.992,0.000
1742814846.039,-919.922,-991.211,-369.141,-898.438,0.000
1742814846.043,-1000.000,-980.469,-453.125,-1000.000,0.000
1742814846.047,-882.812,-988.281,-484.375,-877.930,0.000
1742814846.051,-415.527,-1000.000,-429.199,-386.230,0.000
1742814846.055,-604.004,-1000.000,-455.078,-565.918,0.000
1742814846.059,-1000.000,-994.141,-530.762,-1000.000,0.000
1742814846.063,-1000.000,-981.934,-523.926,-1000.000,0.000
1742814846.067,-846.191,-990.234,-423.340,-845.215,0.000
1742814846.071,-486.816,-1000.000,-429.199,-478.516,0.000
1742814846.074,-726.562,-1000.000,-613.281,-708.008,0.000
1742814846.078,-1000.000,-1000.000,-674.316,-1000.000,0.000
1742814846.082,-1000.000,-1000.000,-465.820,-1000.000,0.000
1742814846.086,-841.797,-996.582,-412.598,-836.426,0.000
1742814846.090,-723.633,-999.023,-449.219,-716.797,0.000
1742814846.094,-685.547,-1000.000,-436.523,-675.781,0.000
1742814846.098,-759.766,-997.559,-390.137,-749.512,0.000
