timestamps,TP9,AF7,AF8,TP10,Right AUX
1742814967.524,285.156,-586.914,-434.082,310.059,0.000
1742814967.528,-447.266,-386.230,-449.219,-423.828,0.000
1742814967.532,-1000.000,-817.871,-444.824,-1000.000,0.000
1742814967.536,-1000.000,-1000.000,-413.574,-1000.000,0.000
1742814967.540,-531.250,-987.305,-470.703,-537.109,0.000
1742814967.544,-123.535,-964.844,-541.992,-114.258,0.000
1742814967.547,-742.676,-941.895,-588.867,-727.051,0.000
1742814967.551,-1000.000,-980.469,-498.047,-1000.000,0.000
1742814967.555,-964.355,-981.445,-377.441,-963.379,0.000
1742814967.559,-701.660,-1000.000,-515.625,-710.449,0.000
1742814967.563,-13.184,-831.543,-585.938,-33.691,0.000
1742814967.567,-191.406,-351.074,-416.016,-195.312,0.000
1742814967.571,-939.453,-458.984,-388.184,-937.500,0.000
1742814967.575,-1000.000,-899.414,-434.570,-1000.000,0.000
1742814967.579,-613.281,-1000.000,-445.312,-620.117,0.000
1742814967.583,265.625,-770.508,-438.965,272.461,0.000
1742814967.586,-90.820,-409.668,-452.637,-75.195,0.000
1742814967.590,-934.082,-708.984,-523.926,-929.199,0.000
1742814967.594,-1000.000,-1000.000,-515.625,-1000.000,0.000
1742814967.598,-812.500,-998.047,-451.172,-818.848,0.000
1742814967.602,73.730,-817.871,-463.867,76.660,0.000
1742814967.606,-286.133,-791.016,-556.152,-271.484,0.000
1742814967.610,-1000.000,-794.922,-479.980,-1000.000,0.000
1742814967.614,-996.582,-833.496,-383.789,-996.094,0.000
1742814967.618,-861.816,-1000.000,-430.664,-867.188,0.000
1742814967.622,-164.062,-920.898,-476.562,-176.270,0.000
1742814967.626,6.836,-510.742,-434.570,24.414,0.000
1742814967.629,-749.512,-416.504,-395.508,-729.492,0.000
1742814967.633,-1000.000,-844.238,-481.445,-1000.000,0.000
1742814967.637,-967.773,-1000.000,-552.246,-969.727,0.000
1742814967.641,-428.711,-1000.000,-537.109,-442.871,0.000
1742814967.645,-169.922,-761.230,-459.961,-159.668,0.000
1742814967.649,-750.000,-625.488,-513.672,-733.887,0.000
1742814967.653,-1000.000,-983.398,-648.926,-1000.000,0.000
1742814967.657,-913.086,-1000.000,-448.242,-914.062,0.000
1742814967.661,-94.238,-890.625,-416.504,-94.238,0.000
1742814967.665,76.660,-761.230,-480.957,102.539,0.000
1742814967.669,-781.250,-624.023,-444.336,-761.719,0.000
1742814967.672,-1000.000,-742.188,-402.344,-1000.000,0.000
1742814967.676,-933.594,-1000.000,-404.297,-932.129,0.000
1742814967.680,-474.609,-996.094,-480.957,-478.516,0.000
1742814967.684,-152.344,-914.551,-548.340,-152.832,0.000
1742814967.688,-709.473,-735.352,-491.699,-704.590,0.000
1742814967.692,-1000.000,-790.039,-397.461,-1000.000,0.000
1742814967.696,-1000.000,-1000.000,-597.656,-1000.000,0.000
1742814967.700,-612.793,-985.352,-638.184,-614.258,0.000
1742814967.704,267.090,-637.695,-418.945,284.180,0.000
1742814967.708,-340.820,-426.270,-456.543,-322.266,0.000
1742814967.712,-1000.000,-817.871,-490.234,-1000.000,0.000
1742814967.715,-1000.000,-1000.000,-405.273,-1000.000,0.000
1742814967.719,-476.074,-958.984,-416.504,-473.145,0.000
1742814967.723,196.777,-812.012,-495.605,208.984,0.000
1742814967.727,-484.375,-655.273,-508.789,-469.727,0.000
1742814967.731,-1000.000,-810.547,-507.812,-1000.000,0.000
1742814967.735,-993.164,-1000.000,-483.887,-994.629,0.000
1742814967.739,-846.680,-1000.000,-545.898,-839.844,0.000
1742814967.743,-503.418,-982.422,-627.441,-522.461,0.000
1742814967.747,-480.469,-549.316,-445.312,-500.488,0.000
1742814967.751,-866.211,-408.691,-380.859,-860.840,0.000
1742814967.754,-1000.000,-858.398,-458.984,-1000.000,0.000
1742814967.758,-708.008,-1000.000,-471.680,-727.539,0.000
1742814967.762,205.566,-796.387,-435.547,174.316,0.000
1742814967.766,-107.422,-547.852,-490.723,-104.980,0.000
1742814967.770,-971.191,-778.320,-477.539,-962.402,0.000
1742814967.774,-1000.000,-996.582,-407.227,-1000.000,0.000
1742814967.778,-907.715,-998.535,-485.352,-910.156,0.000
1742814967.782,-257.324,-971.191,-502.930,-266.602,0.000
1742814967.786,-398.926,-980.957,-616.211,-397.949,0.000
1742814967.790,-1000.000,-859.375,-604.004,-1000.000,0.000
1742814967.794,-1000.000,-794.434,-370.117,-1000.000,0.000
1742814967.797,-866.699,-1000.000,-416.504,-879.395,0.000
1742814967.801,-186.523,-979.492,-510.254,-239.258,0.000
1742814967.805,121.094,-572.266,-451.172,72.266,0.000
1742814967.809,-604.492,-325.684,-379.883,-615.234,0.000
1742814967.813,-1000.000,-735.352,-436.523,-1000.000,0.000
1742814967.817,-887.695,-1000.000,-457.520,-889.648,0.000
1742814967.821,-178.711,-979.492,-480.957,-160.156,0.000
1742814967.825,-56.152,-806.641,-509.277,0.488,0.000
1742814967.829,-794.922,-785.645,-524.414,-761.719,0.000
1742814967.833,-1000.000,-990.234,-634.766,-1000.000,0.000
1742814967.836,-952.637,-1000.000,-476.562,-946.777,0.000
1742814967.840,-227.051,-916.504,-396.973,-218.750,0.000
1742814967.844,124.512,-777.344,-505.371,151.855,0.000
1742814967.848,-694.824,-566.406,-491.699,-666.992,0.000
1742814967.852,-1000.000,-595.215,-385.742,-1000.000,0.000
1742814967.856,-965.332,-950.195,-397.461,-971.191,0.000
1742814967.860,-625.000,-1000.000,-469.238,-658.203,0.000
1742814967.864,40.527,-704.102,-450.684,20.508,0.000
1742814967.868,-385.254,-390.625,-449.707,-373.535,0.000
1742814967.872,-1000.000,-782.715,-482.422,-1000.000,0.000
1742814967.876,-1000.000,-1000.000,-609.375,-1000.000,0.000
1742814967.879,-746.582,-1000.000,-656.738,-753.906,0.000
1742814967.883,57.617,-817.871,-449.219,55.176,0.000
1742814967.887,-260.742,-366.211,-427.734,-227.539,0.000
1742814967.891,-992.676,-649.902,-458.008,-980.469,0.000
1742814967.895,-1000.000,-1000.000,-404.785,-1000.000,0.000
1742814967.899,-578.125,-956.543,-416.504,-572.754,0.000
1742814967.903,164.551,-839.844,-497.070,184.082,0.000
1742814967.907,-365.723,-634.277,-485.352,-326.172,0.000
1742814967.911,-997.070,-541.016,-395.508,-989.258,0.000
1742814967.915,-1000.000,-862.793,-416.992,-1000.000,0.000
1742814967.918,-857.910,-1000.000,-541.504,-856.445,0.000
1742814967.922,-634.277,-974.121,-623.535,-662.109,0.000
1742814967.926,-723.145,-785.645,-520.996,-743.652,0.000
1742814967.930,-956.543,-625.977,-411.133,-953.125,0.000
1742814967.934,-1000.000,-824.707,-480.957,-1000.000,0.000
1742814967.938,-907.715,-1000.000,-549.805,-917.480,0.000
1742814967.942,-42.480,-856.934,-447.754,-46.875,0.000
1742814967.946,117.676,-396.973,-429.688,154.785,0.000
1742814967.950,-755.859,-556.641,-441.895,-733.887,0.000
1742814967.954,-1000.000,-1000.000,-417.969,-1000.000,0.000
1742814967.958,-837.402,-1000.000,-380.859,-846.680,0.000
1742814967.961,-5.371,-900.879,-473.145,-21.484,0.000
1742814967.965,-262.207,-907.715,-580.078,-260.742,0.000
1742814967.969,-1000.000,-834.473,-488.770,-1000.000,0.000
1742814967.973,-1000.000,-823.242,-377.930,-1000.000,0.000
1742814967.977,-880.859,-1000.000,-428.711,-880.371,0.000
1742814967.981,-507.324,-1000.000,-540.527,-525.879,0.000
1742814967.985,-125.977,-637.207,-465.332,-126.465,0.000
1742814967.989,-565.430,-384.766,-408.203,-543.457,0.000
1742814967.993,-1000.000,-778.809,-479.492,-1000.000,0.000
1742814967.997,-963.867,-1000.000,-471.680,-967.773,0.000
1742814968.001,-260.742,-971.680,-440.918,-266.602,0.000
1742814968.004,286.133,-610.840,-431.152,295.410,0.000
1742814968.008,-498.535,-515.625,-472.168,-484.863,0.000
1742814968.012,-1000.000,-949.219,-566.895,-1000.000,0.000
1742814968.016,-1000.000,-1000.000,-488.770,-1000.000,0.000
1742814968.020,-598.145,-972.168,-464.355,-604.492,0.000
1742814968.024,-127.930,-967.285,-571.777,-133.789,0.000
1742814968.028,-763.184,-854.980,-588.379,-758.789,0.000
1742814968.032,-1000.000,-752.441,-417.480,-1000.000,0.000
1742814968.036,-964.355,-920.898,-384.277,-962.402,0.000
1742814968.040,-694.824,-1000.000,-457.520,-690.918,0.000
1742814968.044,16.113,-789.551,-488.770,35.645,0.000
1742814968.047,-298.340,-397.461,-422.363,-262.695,0.000
1742814968.051,-1000.000,-696.777,-443.359,-1000.000,0.000
1742814968.055,-1000.000,-1000.000,-510.254,-1000.000,0.000
1742814968.059,-833.008,-1000.000,-516.602,-824.219,0.000
1742814968.063,-62.988,-871.582,-485.352,-87.891,0.000
1742814968.067,-230.957,-470.215,-395.020,-219.238,0.000
1742814968.071,-973.633,-708.984,-596.191,-965.820,0.000
1742814968.075,-1000.000,-1000.000,-609.375,-1000.000,0.000
1742814968.079,-638.184,-981.445,-378.418,-648.438,0.000
1742814968.082,153.320,-869.629,-467.773,148.438,0.000
1742814968.087,-243.652,-663.086,-474.121,-220.215,0.000
1742814968.090,-947.266,-544.922,-408.203,-941.895,0.000
1742814968.094,-1000.000,-825.684,-381.836,-1000.000,0.000
1742814968.098,-864.746,-1000.000,-432.617,-860.352,0.000
1742814968.102,-184.570,-916.016,-535.645,-183.594,0.000
1742814968.106,-254.883,-723.633,-525.879,-228.516,0.000
1742814968.110,-934.082,-805.176,-458.984,-915.527,0.000
1742814968.114,-1000.000,-1000.000,-554.199,-1000.000,0.000
1742814968.118,-965.820,-1000.000,-620.605,-965.820,0.000
1742814968.122,-155.762,-886.719,-459.473,-150.879,0.000
1742814968.125,163.086,-461.914,-415.527,205.078,0.000
1742814968.129,-681.152,-525.879,-462.891,-648.926,0.000
1742814968.133,-1000.000,-990.723,-471.680,-1000.000,0.000
1742814968.137,-883.789,-1000.000,-388.184,-878.906,0.000
1742814968.141,-97.656,-923.828,-455.566,-87.891,0.000
1742814968.145,10.742,-775.391,-477.539,25.879,0.000
1742814968.149,-786.621,-615.234,-427.734,-774.414,0.000
1742814968.153,-1000.000,-849.121,-505.859,-1000.000,0.000
1742814968.157,-933.105,-1000.000,-468.262,-925.781,0.000
1742814968.161,-849.121,-1000.000,-606.445,-858.887,0.000
1742814968.165,-683.105,-928.223,-652.344,-704.102,0.000
1742814968.168,-711.914,-469.727,-391.602,-696.777,0.000
1742814968.172,-1000.000,-598.145,-406.250,-1000.000,0.000
1742814968.176,-1000.000,-1000.000,-457.031,-1000.000,0.000
1742814968.180,-389.160,-990.723,-439.453,-392.578,0.000
1742814968.184,293.945,-628.418,-436.523,291.992,0.000
1742814968.188,-390.137,-391.113,-449.219,-381.348,0.000
1742814968.192,-1000.000,-785.156,-442.871,-1000.000,0.000
1742814968.196,-1000.000,-1000.000,-422.852,-1000.000,0.000
1742814968.200,-673.340,-965.820,-463.379,-671.875,0.000
1742814968.204,-135.742,-957.031,-552.734,-125.977,0.000
1742814968.208,-695.312,-912.598,-606.934,-683.105,0.000
1742814968.211,-1000.000,-740.723,-410.156,-1000.000,0.000
1742814968.215,-962.402,-855.469,-355.957,-960.449,0.000
1742814968.219,-772.949,-1000.000,-503.418,-766.113,0.000
1742814968.223,-97.168,-856.445,-550.781,-100.586,0.000
1742814968.227,-167.480,-382.812,-413.574,-150.391,0.000
1742814968.231,-899.902,-428.223,-389.160,-880.371,0.000
1742814968.235,-1000.000,-888.184,-444.336,-1000.000,0.000
1742814968.239,-684.570,-1000.000,-439.453,-674.316,0.000
1742814968.243,151.855,-823.730,-472.168,131.348,0.000
1742814968.247,-319.336,-680.664,-490.723,-324.219,0.000
1742814968.250,-1000.000,-854.004,-599.121,-1000.000,0.000
1742814968.254,-1000.000,-1000.000,-603.027,-1000.000,0.000
1742814968.258,-760.742,-988.281,-393.066,-760.742,0.000
1742814968.262,91.797,-861.328,-478.027,104.980,0.000
1742814968.266,-114.746,-633.301,-504.883,-71.777,0.000
1742814968.270,-892.090,-500.977,-405.762,-871.582,0.000
1742814968.274,-1000.000,-783.203,-391.113,-1000.000,0.000
1742814968.278,-988.281,-1000.000,-456.055,-989.746,0.000
1742814968.282,-349.121,-927.734,-498.047,-347.168,0.000
1742814968.286,34.180,-534.668,-447.266,57.129,0.000
1742814968.290,-714.844,-439.453,-413.574,-699.219,0.000
1742814968.293,-1000.000,-864.746,-502.930,-1000.000,0.000
1742814968.297,-1000.000,-1000.000,-611.816,-1000.000,0.000
1742814968.301,-443.848,-995.605,-520.020,-444.824,0.000
1742814968.305,90.820,-592.285,-410.156,108.398,0.000
1742814968.309,-584.473,-525.391,-496.582,-561.523,0.000
1742814968.313,-1000.000,-990.234,-518.555,-1000.000,0.000
1742814968.317,-938.477,-1000.000,-378.906,-938.477,0.000
1742814968.321,-189.453,-919.434,-427.734,-176.758,0.000
1742814968.325,63.477,-835.449,-480.957,93.750,0.000
1742814968.329,-750.000,-619.141,-418.457,-730.469,0.000
1742814968.332,-1000.000,-719.238,-438.965,-1000.000,0.000
1742814968.336,-962.402,-1000.000,-497.559,-955.078,0.000
1742814968.340,-947.266,-1000.000,-597.656,-956.055,0.000
1742814968.344,-486.816,-882.324,-582.031,-493.164,0.000
1742814968.348,-513.184,-448.730,-396.973,-487.793,0.000
1742814968.352,-1000.000,-641.602,-430.176,-1000.000,0.000
1742814968.356,-1000.000,-1000.000,-503.906,-1000.000,0.000
1742814968.360,-469.238,-993.652,-449.219,-466.309,0.000
1742814968.364,297.852,-687.012,-438.965,307.617,0.000
1742814968.368,-319.336,-443.359,-456.055,-291.016,0.000
1742814968.372,-1000.000,-798.828,-437.012,-1000.000,0.000
1742814968.375,-1000.000,-1000.000,-401.855,-1000.000,0.000
1742814968.379,-533.691,-975.586,-412.598,-544.922,0.000
1742814968.383,134.766,-875.000,-496.582,121.094,0.000
1742814968.387,-563.477,-871.582,-541.016,-556.641,0.000
1742814968.391,-1000.000,-963.379,-493.652,-1000.000,0.000
1742814968.395,-970.215,-985.840,-479.492,-968.750,0.000
1742814968.399,-904.785,-1000.000,-562.012,-910.156,0.000
1742814968.403,-407.227,-913.574,-595.215,-429.688,0.000
1742814968.407,-291.016,-495.605,-437.988,-283.203,0.000
1742814968.411,-858.398,-448.730,-392.090,-845.703,0.000
1742814968.415,-1000.000,-848.145,-437.012,-1000.000,0.000
1742814968.418,-749.512,-1000.000,-460.938,-757.324,0.000
1742814968.422,136.719,-860.840,-448.242,139.648,0.000
1742814968.426,35.645,-475.098,-429.688,70.801,0.000
1742814968.430,-821.777,-659.668,-461.914,-809.082,0.000
1742814968.434,-1000.000,-1000.000,-522.461,-1000.000,0.000
1742814968.438,-837.402,-1000.000,-473.145,-847.168,0.000
1742814968.442,57.617,-851.074,-419.434,51.270,0.000
1742814968.446,-222.168,-870.117,-622.070,-208.008,0.000
1742814968.450,-1000.000,-900.391,-626.465,-1000.000,0.000
1742814968.454,-990.723,-809.082,-369.141,-991.211,0.000
1742814968.457,-912.109,-997.559,-421.387,-911.133,0.000
1742814968.461,-275.391,-972.656,-500.488,-280.762,0.000
1742814968.465,111.816,-603.027,-467.285,129.395,0.000
1742814968.469,-605.469,-340.332,-411.133,-580.566,0.000
1742814968.473,-1000.000,-715.332,-425.781,-1000.000,0.000
1742814968.477,-946.777,-1000.000,-487.305,-934.570,0.000
1742814968.481,-458.984,-1000.000,-543.945,-449.219,0.000
1742814968.485,-153.809,-882.324,-512.695,-155.273,0.000
1742814968.489,-733.398,-776.367,-533.203,-723.633,0.000
1742814968.493,-1000.000,-963.379,-590.820,-1000.000,0.000
1742814968.497,-963.867,-1000.000,-418.457,-966.797,0.000
1742814968.500,-248.047,-915.039,-405.273,-269.043,0.000
1742814968.504,105.957,-865.723,-534.180,96.191,0.000
1742814968.508,-686.035,-637.695,-501.953,-677.246,0.000
1742814968.512,-1000.000,-547.363,-383.301,-1000.000,0.000
1742814968.516,-971.680,-928.711,-395.020,-975.098,0.000
1742814968.520,-627.441,-1000.000,-454.590,-640.137,0.000
1742814968.524,31.250,-745.117,-481.445,32.715,0.000
1742814968.528,-443.359,-597.168,-520.996,-428.711,0.000
1742814968.532,-1000.000,-878.906,-477.539,-1000.000,0.000
1742814968.536,-1000.000,-1000.000,-590.332,-1000.000,0.000
1742814968.540,-700.195,-994.629,-628.906,-695.801,0.000
1742814968.543,244.141,-711.914,-433.105,271.973,0.000
1742814968.547,-143.555,-357.910,-447.266,-95.703,0.000
1742814968.551,-987.793,-652.344,-463.379,-970.703,0.000
1742814968.555,-1000.000,-976.562,-411.621,-1000.000,0.000
1742814968.559,-611.328,-986.328,-430.664,-611.816,0.000
1742814968.563,27.832,-992.188,-532.227,28.320,0.000
1742814968.567,-312.500,-670.898,-472.656,-287.598,0.000
1742814968.571,-925.293,-535.645,-415.527,-909.668,0.000
1742814968.575,-1000.000,-927.734,-476.562,-1000.000,0.000
1742814968.579,-853.027,-1000.000,-544.922,-852.051,0.000
1742814968.582,-646.973,-984.375,-595.703,-681.641,0.000
1742814968.586,-466.309,-561.035,-452.148,-481.445,0.000
1742814968.590,-729.492,-309.570,-368.164,-709.961,0.000
1742814968.594,-1000.000,-768.555,-479.492,-1000.000,0.000
1742814968.598,-811.523,-1000.000,-525.879,-819.336,0.000
1742814968.602,84.473,-842.773,-424.316,70.312,0.000
1742814968.606,204.590,-406.738,-429.688,214.355,0.000
1742814968.610,-704.590,-544.922,-437.012,-690.430,0.000
1742814968.614,-1000.000,-989.746,-406.250,-1000.000,0.000
1742814968.618,-963.867,-1000.000,-452.148,-951.660,0.000
1742814968.622,-345.215,-969.727,-507.324,-337.891,0.000
1742814968.625,-367.188,-1000.000,-621.094,-377.441,0.000
1742814968.629,-1000.000,-823.730,-588.379,-1000.000,0.000
1742814968.633,-999.023,-734.375,-375.488,-998.535,0.000
1742814968.637,-932.129,-1000.000,-427.734,-929.199,0.000
1742814968.641,-355.469,-989.746,-500.488,-345.703,0.000
1742814968.645,154.297,-630.371,-450.195,201.660,0.000
1742814968.649,-508.301,-323.730,-396.484,-461.426,0.000
1742814968.653,-1000.000,-669.434,-434.082,-1000.000,0.000
1742814968.657,-975.586,-1000.000,-454.590,-973.145,0.000
1742814968.661,-285.645,-960.449,-429.688,-281.738,0.000
1742814968.664,233.398,-668.457,-458.008,264.648,0.000
1742814968.668,-588.379,-694.336,-528.809,-556.641,0.000
1742814968.672,-1000.000,-973.633,-596.191,-1000.000,0.000
1742814968.676,-1000.000,-1000.000,-489.746,-1000.000,0.000
1742814968.680,-526.855,-920.410,-430.176,-524.414,0.000
1742814968.684,136.230,-807.129,-527.832,154.297,0.000
1742814968.688,-534.180,-587.891,-515.625,-508.789,0.000
1742814968.692,-1000.000,-547.852,-385.742,-1000.000,0.000
1742814968.696,-981.445,-907.715,-375.977,-979.980,0.000
1742814968.700,-714.844,-1000.000,-437.012,-710.938,0.000
1742814968.704,35.156,-802.734,-470.215,31.738,0.000
1742814968.707,-194.336,-389.648,-425.293,-180.176,0.000
1742814968.711,-955.566,-550.781,-401.367,-942.871,0.000
1742814968.715,-1000.000,-957.031,-533.203,-1000.000,0.000
1742814968.719,-734.863,-1000.000,-542.480,-738.770,0.000
1742814968.723,177.734,-781.738,-408.691,172.852,0.000
1742814968.727,-104.980,-430.664,-437.500,-94.727,0.000
1742814968.731,-949.707,-717.285,-539.062,-944.336,0.000
1742814968.735,-1000.000,-1000.000,-442.871,-1000.000,0.000
1742814968.739,-700.684,-982.910,-375.488,-715.332,0.000
1742814968.743,0.000,-894.043,-473.633,88.867,0.000
1742814968.747,0.000,-702.148,-479.004,-174.805,0.000
1742814968.750,0.000,-566.895,-419.434,-927.246,0.000
1742814968.754,0.000,-818.359,-376.953,-1000.000,0.000
1742814968.758,0.000,-1000.000,-462.402,-911.133,0.000
1742814968.762,0.000,-991.699,-565.430,-435.059,0.000
1742814968.766,0.000,-876.465,-524.414,-391.113,0.000
1742814968.770,0.000,-862.305,-478.516,-927.246,0.000
1742814968.774,0.000,-991.211,-557.129,-1000.000,0.000
1742814968.778,0.000,-1000.000,-587.402,-926.270,0.000
1742814968.782,0.000,-910.645,-428.711,-98.633,0.000
1742814968.786,0.000,-560.547,-452.148,180.664,0.000
1742814968.789,104.980,-680.664,0.000,-716.797,0.000
1742814968.793,-203.613,-999.023,0.000,-1000.000,0.000
1742814968.797,-940.918,-1000.000,0.000,-921.875,0.000
1742814968.801,-1000.000,-925.293,0.000,-161.621,0.000
1742814968.805,-916.016,-842.285,0.000,-32.715,0.000
1742814968.809,-435.547,-881.836,0.000,-860.840,0.000
1742814968.813,-410.645,-963.379,0.000,-1000.000,0.000
1742814968.817,-943.359,-986.816,0.000,-875.000,0.000
1742814968.821,-1000.000,-1000.000,0.000,-878.418,0.000
1742814968.825,-925.293,-833.008,0.000,-589.355,0.000
1742814968.828,-93.750,-371.582,0.000,-516.113,0.000
1742814968.832,168.457,-626.465,0.000,-1000.000,0.000
1742814968.836,-1000.000,-1000.000,-453.613,-1000.000,0.000
1742814968.840,-417.480,-983.887,-432.617,-414.551,0.000
1742814968.844,134.277,-848.145,-488.770,148.926,0.000
1742814968.848,-576.660,-723.145,-484.375,-565.918,0.000
1742814968.852,-1000.000,-873.535,-488.281,-1000.000,0.000
1742814968.856,-1000.000,-1000.000,-502.930,-1000.000,0.000
1742814968.860,-763.672,-987.793,-484.375,-786.133,0.000
1742814968.864,-209.473,-984.375,-567.871,-235.352,0.000
1742814968.868,-660.645,-911.621,-579.590,-663.086,0.000
1742814968.871,-1000.000,-725.586,-400.879,-1000.000,0.000
1742814968.875,-967.773,-852.539,-366.699,-964.844,0.000
1742814968.879,-822.754,-1000.000,-477.539,-829.102,0.000
1742814968.883,-80.078,-843.750,-517.578,-83.008,0.000
1742814968.887,-95.703,-401.367,-415.039,-72.754,0.000
1742814968.891,-886.719,-443.359,-406.738,-878.418,0.000
1742814968.895,-1000.000,-881.348,-427.246,-1000.000,0.000
1742814968.899,-742.676,-1000.000,-435.059,-746.582,0.000
1742814968.903,-95.215,-985.840,-529.785,-102.539,0.000
1742814968.907,-406.738,-854.980,-501.465,-391.602,0.000
1742814968.911,-995.117,-869.629,-595.703,-986.816,0.000
1742814968.914,-1000.000,-1000.000,-595.215,-1000.000,0.000
1742814968.918,-800.781,-995.605,-375.977,-803.711,0.000
1742814968.922,40.527,-899.414,-464.844,51.758,0.000
1742814968.926,-50.781,-679.688,-490.723,-18.555,0.000
1742814968.930,-832.520,-500.000,-403.320,-821.289,0.000
1742814968.934,-1000.000,-756.836,-388.672,-1000.000,0.000
1742814968.938,-945.312,-1000.000,-446.289,-950.195,0.000
1742814968.942,-286.133,-927.246,-485.352,-288.086,0.000
1742814968.946,33.203,-579.590,-466.309,73.242,0.000
1742814968.950,-766.602,-691.895,-484.375,-738.281,0.000
1742814968.953,-1000.000,-1000.000,-537.109,-1000.000,0.000
1742814968.957,-1000.000,-1000.000,-625.488,-1000.000,0.000
1742814968.961,-391.602,-950.684,-506.836,-385.742,0.000
1742814968.965,240.723,-521.973,-407.227,280.273,0.000
1742814968.969,-529.785,-486.816,-496.094,-494.141,0.000
1742814968.973,-1000.000,-937.500,-514.160,-1000.000,0.000
1742814968.977,-1000.000,-1000.000,0.000,-1000.000,0.000
1742814968.981,-309.570,-914.551,0.000,-300.293,0.000
1742814968.985,86.426,-833.008,0.000,118.164,0.000
1742814968.989,-685.547,-585.449,0.000,-662.109,0.000
1742814968.993,-1000.000,-668.457,0.000,-1000.000,0.000
1742814968.996,-953.125,-1000.000,0.000,-944.824,0.000
1742814969.000,-991.699,-1000.000,0.000,-1000.000,0.000
1742814969.004,-550.293,-836.914,0.000,-590.332,0.000
1742814969.008,-470.215,-386.719,0.000,-443.848,0.000
1742814969.012,-1000.000,-617.676,0.000,-990.234,0.000
1742814969.016,-1000.000,-1000.000,0.000,-1000.000,0.000
1742814969.020,-529.785,-1000.000,0.000,-515.625,0.000
1742814969.024,240.723,-764.160,-438.965,271.484,0.000
1742814969.028,-298.828,-491.211,-452.637,-261.230,0.000
1742814969.032,-1000.000,-808.105,-457.031,-1000.000,0.000
1742814969.035,-1000.000,-1000.000,-399.414,-1000.000,0.000
1742814969.039,-635.742,-985.840,-430.176,-627.441,0.000
1742814969.043,-131.348,-995.117,-540.039,-104.004,0.000
1742814969.047,-669.434,-999.023,-613.281,-647.461,0.000
1742814969.051,-1000.000,-964.844,-501.465,-1000.000,0.000
1742814969.055,-978.027,-944.824,-353.516,-975.586,0.000
1742814969.059,-893.555,-1000.000,-488.770,-890.137,0.000
1742814969.063,-156.738,-917.480,-563.477,-144.043,0.000
1742814969.067,-80.566,-514.160,-417.969,-46.875,0.000
1742814969.071,-857.910,-649.414,-450.684,-845.703,0.000
1742814969.075,-1000.000,-1000.000,-494.141,-1000.000,0.000
1742814969.078,-824.219,-1000.000,-446.289,-830.078,0.000
1742814969.082,25.879,-903.320,-434.082,14.160,0.000
1742814969.086,-30.762,-623.047,-455.078,-26.855,0.000
1742814969.090,-897.461,-804.688,-588.379,-895.020,0.000
1742814969.094,-1000.000,-1000.000,-540.527,-1000.000,0.000
1742814969.098,-865.234,-995.605,-376.953,-870.605,0.000
1742814969.102,-45.410,-933.594,-457.520,-58.105,0.000
1742814969.106,-248.047,-871.094,-530.273,-242.676,0.000
1742814969.110,-1000.000,-687.012,-432.617,-1000.000,0.000
1742814969.114,-979.980,-764.160,-376.465,-981.445,0.000
1742814969.118,-968.262,-1000.000,-426.758,-966.309,0.000
1742814969.121,-392.578,-972.656,-492.188,-390.137,0.000
1742814969.125,61.523,-680.664,-469.238,91.309,0.000
1742814969.129,-666.992,-666.504,-431.641,-636.719,0.000
1742814969.133,-1000.000,-939.453,-470.215,-1000.000,0.000
1742814969.137,-1000.000,-985.352,-532.227,-1000.000,0.000
1742814969.141,-610.840,-1000.000,-523.926,-601.562,0.000
1742814969.145,-109.375,-874.512,-470.215,-88.379,0.000
1742814969.149,-600.098,-665.039,-500.000,-581.055,0.000
1742814969.153,-1000.000,-935.547,-566.895,-1000.000,0.000
1742814969.157,-1000.000,-1000.000,-397.949,-1000.000,0.000
1742814969.160,-331.543,-931.641,-416.504,-322.754,0.000
1742814969.164,114.746,-907.715,-513.184,149.902,0.000
1742814969.168,-613.770,-645.020,-467.773,-580.078,0.000
1742814969.172,-1000.000,-576.660,-393.066,-1000.000,0.000
1742814969.176,-986.816,-938.477,-391.113,-985.352,0.000
1742814969.180,-727.539,-1000.000,-481.445,-726.074,0.000
1742814969.184,-232.910,-942.871,-561.523,-225.586,0.000
1742814969.188,-565.430,-783.203,-502.441,-545.898,0.000
1742814969.192,-1000.000,-877.930,-454.590,-1000.000,0.000
1742814969.196,-1000.000,-1000.000,-604.492,-1000.000,0.000
1742814969.200,-720.215,-1000.000,-628.906,-726.562,0.000
1742814969.203,200.684,-765.137,-437.500,209.473,0.000
1742814969.207,-112.793,-410.645,-448.730,-64.453,0.000
1742814969.211,-954.590,-637.207,-453.613,-936.035,0.000
1742814969.215,-1000.000,-951.660,-397.461,-1000.000,0.000
1742814969.219,-657.227,-994.629,-416.016,-666.992,0.000
1742814969.223,109.375,-920.410,-501.953,123.535,0.000
1742814969.227,-229.980,-658.691,-505.371,-202.637,0.000
1742814969.231,-960.938,-738.770,-496.582,-957.520,0.000
1742814969.235,-1000.000,-1000.000,-475.586,-1000.000,0.000
1742814969.239,-920.898,-1000.000,-539.551,-922.852,0.000
1742814969.242,-639.160,-975.098,-623.047,-686.523,0.000
1742814969.246,-262.695,-531.738,-443.359,-293.457,0.000
1742814969.250,-665.527,-286.621,-365.234,-656.738,0.000
1742814969.254,-1000.000,-739.258,-467.773,-1000.000,0.000
1742814969.258,-847.656,-1000.000,-504.883,-851.562,0.000
1742814969.262,22.949,-865.723,-432.617,21.484,0.000
1742814969.266,250.000,-436.035,-440.430,277.832,0.000
1742814969.270,-663.574,-523.926,-435.059,-640.625,0.000
1742814969.274,-1000.000,-936.523,-429.199,-1000.000,0.000
1742814969.278,-991.211,-1000.000,-495.605,-1000.000,0.000
1742814969.282,-389.160,-960.449,-479.004,-400.391,0.000
1742814969.285,-301.270,-991.211,-592.285,-295.898,0.000
1742814969.289,-1000.000,-811.035,-584.961,-1000.000,0.000
1742814969.293,-984.375,-667.969,-382.324,-984.375,0.000
1742814969.297,-1000.000,-966.309,-446.289,-1000.000,0.000
1742814969.301,-509.766,-993.652,-499.023,-528.320,0.000
1742814969.305,199.707,-623.535,-451.172,195.801,0.000
1742814969.309,-429.688,-284.180,-404.785,-416.016,0.000
1742814969.313,-1000.000,-624.023,-438.965,-1000.000,0.000
1742814969.317,-984.375,-1000.000,-458.984,-993.164,0.000
1742814969.321,-340.820,-967.773,-449.219,-362.793,0.000
1742814969.325,78.613,-835.938,-484.375,92.285,0.000
1742814969.328,-636.719,-784.668,-522.949,-616.211,0.000
1742814969.332,-1000.000,-947.754,-585.449,-1000.000,0.000
1742814969.336,-1000.000,-1000.000,-423.828,-1000.000,0.000
1742814969.340,-399.902,-917.480,-385.254,-431.152,0.000
1742814969.344,211.426,-841.797,-526.855,195.312,0.000
1742814969.348,-462.891,-587.402,-496.582,-438.965,0.000
1742814969.352,-981.934,-511.719,-379.395,-971.191,0.000
1742814969.356,-1000.000,-918.945,-438.477,-1000.000,0.000
1742814969.360,-823.730,-1000.000,-489.258,-834.473,0.000
1742814969.364,28.320,-777.344,-449.707,22.461,0.000
1742814969.367,-162.598,-407.227,-450.684,-131.836,0.000
1742814969.371,-978.027,-717.285,-481.445,-964.355,0.000
1742814969.375,-1000.000,-1000.000,-593.750,-1000.000,0.000
1742814969.379,-726.562,-981.934,-614.258,-718.750,0.000
1742814969.383,216.309,-758.789,-429.688,238.281,0.000
1742814969.387,24.902,-402.344,-446.289,61.523,0.000
1742814969.391,-874.023,-620.117,-468.262,-852.539,0.000
1742814969.395,-1000.000,-962.891,-396.484,-1000.000,0.000
1742814969.399,-808.105,-984.375,-405.762,-809.082,0.000
1742814969.403,9.766,-910.156,-475.586,27.832,0.000
1742814969.407,-125.977,-675.781,-461.914,-75.684,0.000
1742814969.410,-913.574,-639.648,-454.102,-893.066,0.000
1742814969.414,-1000.000,-949.707,-455.566,-1000.000,0.000
1742814969.418,-924.316,-1000.000,-485.840,-910.645,0.000
1742814969.422,-780.762,-1000.000,-599.121,-794.922,0.000
1742814969.426,-504.395,-768.555,-503.906,-513.672,0.000
1742814969.430,-716.309,-410.156,-372.070,-698.242,0.000
1742814969.434,-1000.000,-727.051,-466.309,-1000.000,0.000
1742814969.438,-887.695,-1000.000,-515.625,-889.160,0.000
1742814969.442,-69.336,-919.922,-419.434,-58.594,0.000
1742814969.446,233.887,-540.527,-434.570,267.578,0.000
1742814969.449,-629.883,-591.797,-459.473,-607.910,0.000
1742814969.453,-1000.000,-957.031,-437.500,-1000.000,0.000
1742814969.457,-944.824,-993.652,-389.648,-951.660,0.000
1742814969.461,-217.285,-968.262,-443.848,-229.980,0.000
1742814969.465,-260.254,-976.074,-584.961,-252.930,0.000
1742814969.469,-1000.000,-933.594,-573.242,-1000.000,0.000
1742814969.473,-993.164,-930.664,-417.969,-996.094,0.000
1742814969.477,-962.891,-1000.000,-407.227,-959.473,0.000
1742814969.481,-779.297,-1000.000,-514.160,-807.617,0.000
1742814969.485,-154.297,-773.438,-476.562,-190.918,0.000
1742814969.488,-428.711,-409.668,-399.902,-426.758,0.000
1742814969.492,-1000.000,-651.367,-433.594,-1000.000,0.000
1742814969.496,-1000.000,-1000.000,-441.895,-1000.000,0.000
1742814969.500,-517.578,-1000.000,-430.664,-529.297,0.000
1742814969.504,178.223,-781.738,-453.613,204.590,0.000
1742814969.508,-410.156,-577.148,-466.797,-371.094,0.000
1742814969.512,-1000.000,-879.883,-508.789,-1000.000,0.000
1742814969.516,-1000.000,-1000.000,-496.582,-1000.000,0.000
1742814969.520,-726.074,-959.961,-453.125,-735.840,0.000
1742814969.524,-110.840,-987.793,-530.762,-101.562,0.000
1742814969.528,-685.059,-865.723,-571.777,-662.109,0.000
1742814969.531,-1000.000,-669.922,-395.508,-1000.000,0.000
1742814969.535,-966.797,-882.812,-368.164,-965.332,0.000
1742814969.539,-915.527,-1000.000,-465.820,-916.016,0.000
1742814969.543,-195.801,-908.203,-529.785,-191.406,0.000
1742814969.547,-147.461,-534.668,-426.758,-112.793,0.000
1742814969.551,-908.691,-534.180,-391.113,-884.277,0.000
1742814969.555,-1000.000,-905.273,-467.773,-1000.000,0.000
1742814969.559,-974.609,-1000.000,-541.016,-972.656,0.000
1742814969.563,-312.500,-927.246,-505.859,-306.152,0.000
1742814969.567,-106.934,-568.848,-405.273,-100.098,0.000
1742814969.571,-857.422,-709.473,-594.727,-854.492,0.000
1742814969.574,-1000.000,-1000.000,-617.676,-1000.000,0.000
1742814969.578,-852.539,-976.562,-373.047,-855.469,0.000
1742814969.582,-259.766,-1000.000,-490.234,-257.324,0.000
1742814969.586,0.000,-866.699,-506.348,-239.746,0.000
1742814969.590,0.000,-570.801,-411.133,-830.566,0.000
1742814969.594,0.000,-814.453,-397.461,-1000.000,0.000
1742814969.598,0.000,-1000.000,-429.688,-1000.000,0.000
1742814969.602,0.000,-983.887,-510.742,-520.508,0.000
1742814969.606,0.000,-923.828,-527.344,-265.137,0.000
1742814969.610,0.000,-910.156,-480.957,-854.492,0.000
1742814969.614,0.000,-994.141,-532.227,-1000.000,0.000
1742814969.617,0.000,-1000.000,-583.496,-1000.000,0.000
1742814969.621,0.000,-982.422,-459.473,-347.656,0.000
1742814969.625,0.000,-631.836,-413.574,229.004,0.000
1742814969.629,0.000,-599.609,-494.141,-538.086,0.000
1742814969.633,-1000.000,-991.699,-490.234,-1000.000,0.000
1742814969.637,-1000.000,-995.605,-407.227,-1000.000,0.000
1742814969.641,-660.645,-1000.000,-518.555,-660.156,0.000
1742814969.645,-189.941,-972.168,-508.789,-199.219,0.000
1742814969.649,-664.062,-690.430,-429.688,-669.434,0.000
1742814969.653,-1000.000,-829.102,-515.625,-1000.000,0.000
1742814969.657,-952.637,-1000.000,-501.465,-950.195,0.000
1742814969.660,-1000.000,-1000.000,-582.520,-1000.000,0.000
1742814969.664,-588.379,-870.605,-612.793,-622.559,0.000
1742814969.668,-448.242,-452.148,-380.371,-457.520,0.000
1742814969.672,-993.164,-640.625,-432.129,-986.816,0.000
1742814969.676,-1000.000,-1000.000,-478.027,-1000.000,0.000
1742814969.680,-605.957,-1000.000,-418.457,-606.934,0.000
1742814969.684,196.289,-833.496,-435.547,193.848,0.000
1742814969.688,-270.020,-573.242,-446.289,-254.883,0.000
1742814969.692,-1000.000,-827.148,-446.289,-1000.000,0.000
1742814969.696,-1000.000,-1000.000,-458.984,-1000.000,0.000
1742814969.699,-876.465,-976.074,-499.023,-878.418,0.000
1742814969.703,-367.676,-1000.000,-553.223,-375.977,0.000
1742814969.707,-659.180,-949.219,-566.895,-659.668,0.000
1742814969.711,-1000.000,-772.461,-418.457,-1000.000,0.000
1742814969.715,-976.562,-903.809,-367.188,-972.168,0.000
1742814969.719,-959.473,-1000.000,-476.074,-973.633,0.000
1742814969.723,-243.164,-927.246,-539.062,-248.535,0.000
1742814969.727,-56.641,-577.148,-412.109,-13.184,0.000
1742814969.731,-821.289,-553.223,-396.973,-801.270,0.000
1742814969.735,-1000.000,-911.621,-436.523,-1000.000,0.000
1742814969.739,-851.074,-1000.000,-426.758,-856.445,0.000
1742814969.742,-90.332,-956.543,-463.867,-82.031,0.000
1742814969.746,-229.492,-889.648,-488.770,-203.613,0.000
1742814969.750,-964.355,-937.500,-626.953,-958.496,0.000
1742814969.754,-1000.000,-1000.000,-626.953,-1000.000,0.000
1742814969.758,-900.391,-995.117,-375.000,-904.785,0.000
1742814969.762,-190.430,-980.957,-451.172,-184.570,0.000
1742814969.766,-81.055,-865.723,-499.023,-45.898,0.000
1742814969.770,-811.035,-645.508,-426.270,-792.969,0.000
1742814969.774,-1000.000,-799.805,-392.578,-1000.000,0.000
1742814969.778,-1000.000,-1000.000,-416.016,-1000.000,0.000
1742814969.781,-564.453,-1000.000,-473.633,-539.551,0.000
1742814969.785,-24.414,-756.348,-448.242,11.230,0.000
1742814969.789,-652.344,-625.488,-437.988,-632.324,0.000
1742814969.793,-1000.000,-921.875,-516.602,-1000.000,0.000
1742814969.797,-1000.000,-1000.000,-600.586,-1000.000,0.000
1742814969.801,-644.043,-996.094,-506.348,-639.648,0.000
1742814969.805,40.039,-752.930,-412.598,71.289,0.000
1742814969.809,-557.617,-696.777,-521.973,-524.902,0.000
1742814969.813,-1000.000,-992.676,-533.203,-1000.000,0.000
1742814969.817,-1000.000,-1000.000,-371.582,-1000.000,0.000
1742814969.821,-638.184,-985.352,-436.523,-634.277,0.000
1742814969.824,-273.438,-1000.000,-535.645,-262.695,0.000
1742814969.828,-713.379,-750.000,-465.820,-703.125,0.000
1742814969.832,-1000.000,-708.008,-394.043,-1000.000,0.000
1742814969.836,-971.680,-989.746,-390.625,-971.191,0.000
1742814969.840,-1000.000,-1000.000,-547.852,-1000.000,0.000
1742814969.844,-561.035,-940.918,-579.590,-548.340,0.000
1742814969.848,-451.172,-597.168,-381.836,-423.828,0.000
1742814969.852,-984.375,-666.992,-407.715,-974.609,0.000
1742814969.856,-1000.000,-1000.000,-487.305,-1000.000,0.000
1742814969.860,-732.910,-1000.000,-425.781,-741.211,0.000
1742814969.863,-14.648,-937.988,-451.172,-8.301,0.000
1742814969.867,-441.895,-855.957,-499.023,-419.922,0.000
1742814969.871,-1000.000,-922.852,-452.148,-1000.000,0.000
1742814969.875,-1000.000,-1000.000,-399.902,-1000.000,0.000
1742814969.879,-808.105,-995.605,-403.320,-810.059,0.000
1742814969.883,-154.297,-1000.000,-492.676,-145.020,0.000
1742814969.887,-542.969,-962.891,-519.531,-523.926,0.000
1742814969.891,-1000.000,-950.684,-502.441,-1000.000,0.000
1742814969.895,-955.566,-998.047,-448.242,-954.590,0.000
1742814969.899,-1000.000,-1000.000,-472.656,-1000.000,0.000
1742814969.903,-673.828,-993.652,-589.355,-689.453,0.000
1742814969.906,-274.414,-684.082,-450.684,-255.859,0.000
1742814969.910,-767.578,-529.785,-382.812,-745.117,0.000
1742814969.914,-1000.000,-869.141,-461.426,-1000.000,0.000
1742814969.918,-911.133,-1000.000,-484.863,-907.227,0.000
1742814969.922,-389.648,-1000.000,-487.305,-372.070,0.000
1742814969.926,-194.336,-821.777,-490.234,-154.297,0.000
1742814969.930,-762.207,-749.023,-432.129,-735.352,0.000
1742814969.934,-1000.000,-1000.000,-496.094,-1000.000,0.000
1742814969.938,-1000.000,-1000.000,-500.977,-1000.000,0.000
1742814969.942,-369.629,-959.961,-422.852,-369.629,0.000
1742814969.946,-316.895,-994.141,-598.633,-306.641,0.000
1742814969.949,-1000.000,-875.000,-614.258,-1000.000,0.000
1742814969.953,-972.168,-824.707,-374.023,-973.145,0.000
1742814969.957,-1000.000,-1000.000,-428.223,-1000.000,0.000
1742814969.961,-685.547,-1000.000,-502.441,-694.336,0.000
1742814969.965,-14.160,-812.500,-454.590,4.395,0.000
1742814969.969,-536.621,-547.852,-410.645,-500.000,0.000
1742814969.973,-1000.000,-783.691,-439.453,-1000.000,0.000
1742814969.977,-1000.000,-1000.000,-474.121,-1000.000,0.000
1742814969.981,-784.180,-995.605,-499.512,-771.973,0.000
1742814969.985,-351.074,-986.816,-490.723,-350.586,0.000
1742814969.988,-728.027,-973.633,-514.648,-724.121,0.000
1742814969.992,-1000.000,-997.070,-589.355,-1000.000,0.000
1742814969.996,-1000.000,-1000.000,-425.293,-1000.000,0.000
1742814970.000,-605.957,-979.980,-377.441,-601.562,0.000
1742814970.004,-59.082,-1000.000,-515.625,-56.152,0.000
1742814970.008,-603.027,-778.320,-509.766,-582.031,0.000
1742814970.012,-1000.000,-692.871,-392.578,-1000.000,0.000
1742814970.016,-1000.000,-985.352,-403.809,-999.512,0.000
1742814970.020,-934.082,-1000.000,-423.828,-933.594,0.000
1742814970.024,-250.488,-907.715,-458.008,-245.117,0.000
1742814970.028,-432.129,-854.980,-487.793,-412.598,0.000
1742814970.031,-1000.000,-971.680,-467.773,-1000.000,0.000
1742814970.035,-1000.000,-995.117,-625.000,-1000.000,0.000
1742814970.039,-822.754,-1000.000,-634.277,-821.289,0.000
1742814970.043,-6.836,-924.316,-404.785,-15.625,0.000
1742814970.047,-118.652,-635.254,-435.547,-111.328,0.000
1742814970.051,-905.762,-787.109,-469.238,-894.043,0.000
1742814970.055,-1000.000,-1000.000,-406.250,-1000.000,0.000
1742814970.059,-833.496,-977.539,-388.184,-833.984,0.000
1742814970.063,-147.461,-1000.000,-475.098,-148.438,0.000
1742814970.067,-220.215,-823.242,-458.496,-201.660,0.000
1742814970.071,-880.371,-687.500,-440.918,-867.188,0.000
1742814970.074,-996.094,-968.262,-491.699,-999.023,0.000
1742814970.078,-995.605,-1000.000,-510.254,-993.164,0.000
1742814970.082,-859.375,-992.676,-579.590,-860.840,0.000
1742814970.086,-354.004,-666.504,-451.660,-346.680,0.000
1742814970.090,-632.324,-483.887,-389.648,-622.559,0.000
1742814970.094,-1000.000,-866.211,-517.090,-1000.000,0.000
1742814970.098,-929.199,-1000.000,-512.695,-935.059,0.000
1742814970.102,0.000,-964.355,-415.039,-241.211,0.000
1742814970.106,0.000,-641.113,-435.059,180.664,0.000
1742814970.110,0.000,-651.367,-451.172,-597.656,0.000
1742814970.113,0.000,-989.258,-408.203,-1000.000,0.000
1742814970.117,0.000,-998.535,-422.363,-1000.000,0.000
1742814970.121,0.000,-980.469,-498.047,-586.426,0.000
1742814970.125,0.000,-1000.000,-615.723,-464.355,0.000
1742814970.129,0.000,-841.309,-601.562,-1000.000,0.000
1742814970.133,0.000,-699.219,-368.164,-989.746,0.000
1742814970.137,0.000,-951.660,-401.367,-1000.000,0.000
1742814970.141,0.000,-1000.000,-484.375,-678.711,0.000
1742814970.145,0.000,-759.766,-447.754,96.680,0.000
1742814970.149,-407.715,-594.727,-442.871,-380.371,0.000
1742814970.153,-1000.000,-879.883,-475.586,-1000.000,0.000
1742814970.156,-1000.000,-1000.000,-449.219,-1000.000,0.000
1742814970.160,-523.438,-986.328,-414.062,-528.809,0.000
1742814970.164,172.363,-822.754,-472.656,183.594,0.000
1742814970.168,-455.078,-766.113,-540.527,-437.500,0.000
1742814970.172,-1000.000,-943.848,-574.219,-1000.000,0.000
1742814970.176,-1000.000,-1000.000,-469.727,-1000.000,0.000
1742814970.180,-576.172,-948.242,-379.883,-583.496,0.000
1742814970.184,37.109,-954.590,-510.254,27.344,0.000
1742814970.188,-403.809,-732.910,-518.555,-388.184,0.000
1742814970.192,-923.340,-495.117,-382.812,-906.738,0.000
1742814970.195,-1000.000,-842.285,-389.648,-1000.000,0.000
1742814970.199,-913.086,-1000.000,-449.707,-911.133,0.000
1742814970.203,-205.566,-919.434,-510.742,-190.430,0.000
1742814970.207,-258.301,-703.125,-454.102,-221.191,0.000
1742814970.211,-948.730,-669.434,-417.969,-937.500,0.000
1742814970.215,-1000.000,-936.523,-537.598,-1000.000,0.000
1742814970.219,-844.238,-1000.000,-489.258,-836.426,0.000
1742814970.223,-41.016,-904.297,-422.363,-25.879,0.000
1742814970.227,22.461,-543.945,-428.223,51.270,0.000
1742814970.231,-797.852,-689.941,-559.082,-776.367,0.000
1742814970.234,-1000.000,-1000.000,-535.156,-1000.000,0.000
1742814970.238,-832.031,-979.492,-376.465,-827.637,0.000
1742814970.242,-196.289,-1000.000,-494.141,-187.012,0.000
1742814970.246,-107.910,-836.914,-492.676,-90.332,0.000
1742814970.250,-734.863,-505.859,-416.016,-721.191,0.000
1742814970.254,-1000.000,-720.215,-395.996,-1000.000,0.000
1742814970.258,-955.078,-1000.000,-447.754,-956.055,0.000
1742814970.262,-531.738,-1000.000,-559.570,-546.387,0.000
1742814970.266,-223.633,-896.484,-534.180,-236.328,0.000
1742814970.270,-746.582,-798.340,-483.398,-742.676,0.000
1742814970.274,-1000.000,-945.801,-538.574,-1000.000,0.000
1742814970.277,-992.676,-1000.000,-567.383,-997.559,0.000
1742814970.281,-326.660,-952.148,-452.637,-344.238,0.000
1742814970.285,339.355,-556.152,-425.781,335.449,0.000
1742814970.289,-415.039,-498.535,-490.234,-409.668,0.000
1742814970.293,-1000.000,-825.684,-484.863,-1000.000,0.000
1742814970.297,-1000.000,-943.848,-403.320,-1000.000,0.000
1742814970.301,-375.000,-928.711,-437.988,-396.973,0.000
1742814970.305,72.754,-847.168,-493.652,93.262,0.000
1742814970.309,-689.941,-835.449,-507.812,-656.250,0.000
1742814970.313,-1000.000,-801.270,-431.641,-1000.000,0.000
1742814970.317,-920.898,-895.508,-369.141,-911.133,0.000
1742814970.320,-1000.000,-1000.000,-585.449,-1000.000,0.000
1742814970.324,-504.395,-832.520,-629.395,-517.090,0.000
1742814970.328,-212.891,-310.059,-392.090,-179.688,0.000
1742814970.332,-898.438,-405.762,-429.199,-871.582,0.000
1742814970.336,-1000.000,-905.273,-475.586,-1000.000,0.000
1742814970.340,-519.043,-973.633,-426.758,-523.438,0.000
1742814970.344,350.586,-657.227,-452.148,377.930,0.000
1742814970.348,-38.086,-393.555,-453.613,27.344,0.000
1742814970.352,-917.969,-624.023,-459.473,-893.555,0.000
1742814970.356,-1000.000,-947.754,-481.934,-1000.000,0.000
1742814970.360,-793.457,-995.117,-490.723,-789.551,0.000
1742814970.363,-109.863,-975.586,-557.617,-105.957,0.000
1742814970.367,-467.285,-900.391,-570.312,-457.520,0.000
1742814970.371,-1000.000,-553.223,-420.898,-1000.000,0.000
1742814970.375,-980.957,-671.387,-402.832,-977.539,0.000
1742814970.379,-940.430,-1000.000,-525.391,-952.637,0.000
1742814970.383,-92.773,-846.680,-528.809,-109.863,0.000
1742814970.387,254.395,-351.074,-424.316,264.160,0.000
1742814970.391,-635.254,-246.582,-424.805,-633.789,0.000
1742814970.395,-1000.000,-730.469,-433.594,-1000.000,0.000
1742814970.399,-828.613,-1000.000,-428.223,-833.008,0.000
1742814970.403,-178.711,-993.652,-522.461,-189.453,0.000
1742814970.406,-96.191,-728.516,-492.676,-61.523,0.000
1742814970.410,-764.160,-722.656,-595.703,-730.469,0.000
1742814970.414,-1000.000,-962.402,-611.816,-1000.000,0.000
1742814970.418,-852.539,-849.609,-376.953,-842.285,0.000
1742814970.422,-55.176,-783.203,-458.496,-25.391,0.000
1742814970.426,182.129,-618.652,-508.789,238.770,0.000
1742814970.430,-588.379,-331.543,-415.527,-546.875,0.000
1742814970.434,-1000.000,-612.793,-422.852,-1000.000,0.000
1742814970.438,-964.355,-1000.000,-451.172,-948.730,0.000
1742814970.442,-347.168,-916.992,-453.613,-323.242,0.000
1742814970.445,295.898,-519.531,-470.215,333.008,0.000
1742814970.449,-469.727,-466.309,-462.402,-429.688,0.000
1742814970.453,-1000.000,-830.566,-487.305,-1000.000,0.000
1742814970.457,-1000.000,-1000.000,-600.586,-1000.000,0.000
1742814970.461,-419.922,-918.945,-500.000,-424.805,0.000
1742814970.465,483.398,-465.820,-414.551,484.863,0.000
1742814970.469,-240.234,-365.234,-501.953,-228.516,0.000
1742814970.473,-1000.000,-637.695,-483.398,-1000.000,0.000
1742814970.477,-984.863,-750.488,-379.395,-983.398,0.000
1742814970.481,-312.988,-793.457,-428.711,-305.664,0.000
1742814970.485,256.348,-743.652,-479.980,285.156,0.000
1742814970.488,-388.672,-526.855,-476.562,-334.961,0.000
1742814970.492,-998.047,-576.660,-492.676,-979.004,0.000
1742814970.496,-965.820,-940.430,-473.145,-963.379,0.000
1742814970.500,-1000.000,-1000.000,-581.055,-987.793,0.000
1742814970.504,-476.074,-829.590,-631.836,-493.652,0.000
1742814970.508,-123.535,-288.086,-410.156,-115.723,0.000
1742814970.512,-805.176,-251.953,-408.691,-792.480,0.000
1742814970.516,-1000.000,-798.340,-459.473,-1000.000,0.000
1742814970.520,-579.590,-947.754,-417.969,-598.145,0.000
1742814970.524,299.805,-644.531,-441.895,295.898,0.000
1742814970.527,52.246,-379.395,-468.750,102.539,0.000
1742814970.531,-840.820,-486.816,-451.660,-816.406,0.000
1742814970.535,-1000.000,-727.051,-376.465,-1000.000,0.000
1742814970.539,-724.121,-889.160,-408.691,-712.402,0.000
1742814970.543,-94.238,-997.070,-549.316,-74.707,0.000
1742814970.547,-499.023,-940.918,-602.051,-480.957,0.000
1742814970.551,-1000.000,-848.633,-520.508,-1000.000,0.000
1742814970.555,-978.027,-848.145,-394.531,-978.027,0.000
1742814970.559,-917.480,-950.684,-461.426,-903.320,0.000
1742814970.563,-164.551,-899.414,-540.039,-149.414,0.000
1742814970.566,281.250,-430.176,-422.363,312.500,0.000
1742814970.570,-536.621,-184.570,-395.020,-504.883,0.000
1742814970.574,-1000.000,-631.348,-445.312,-1000.000,0.000
1742814970.578,-855.957,-1000.000,-468.750,-865.234,0.000
1742814970.582,-36.133,-839.355,-454.590,-39.062,0.000
1742814970.586,263.184,-466.309,-441.895,296.875,0.000
1742814970.590,-620.605,-657.715,-594.727,-594.238,0.000
1742814970.594,-1000.000,-993.164,-606.934,-1000.000,0.000
1742814970.598,-881.836,-873.047,-376.953,-882.324,0.000
1742814970.602,-203.613,-869.141,-468.262,-200.684,0.000
1742814970.606,29.297,-851.074,-529.785,34.180,0.000
1742814970.609,-632.812,-480.469,-416.504,-631.836,0.000
1742814970.613,-992.676,-429.688,-371.582,-994.629,0.000
1742814970.617,-1000.000,-864.258,-434.082,-1000.000,0.000
1742814970.621,-557.129,-975.098,-496.094,-568.359,0.000
1742814970.625,216.309,-630.859,-467.285,195.312,0.000
1742814970.629,-307.129,-257.812,-408.203,-285.645,0.000
1742814970.633,-1000.000,-552.246,-435.059,-1000.000,0.000
1742814970.637,-1000.000,-993.164,-508.789,-1000.000,0.000
1742814970.641,-695.312,-1000.000,-506.836,-687.988,0.000
1742814970.645,24.414,-842.773,-460.449,32.715,0.000
1742814970.649,-338.379,-533.691,-478.516,-322.754,0.000
1742814970.652,-1000.000,-814.941,-530.273,-1000.000,0.000
1742814970.656,-1000.000,-979.492,-395.508,-1000.000,0.000
1742814970.660,-626.465,-956.055,-446.777,-632.812,0.000
