timestamps,TP9,AF7,AF8,TP10,Right AUX
1742814743.247,-920.898,-968.750,-363.281,-920.898,0.000
1742814743.251,-939.941,-961.426,-539.062,-931.152,0.000
1742814743.255,-959.961,-963.867,-677.246,-945.801,0.000
1742814743.259,-959.961,-960.938,-582.520,-937.500,0.000
1742814743.263,-961.426,-961.914,-333.008,-927.734,0.000
1742814743.266,-965.820,-970.215,-264.648,-946.289,0.000
1742814743.270,-968.750,-968.262,-485.840,-972.656,0.000
1742814743.274,-968.750,-968.262,-662.109,-964.844,0.000
1742814743.278,-970.703,-970.703,-569.336,-955.078,0.000
1742814743.282,-971.680,-978.027,-292.969,-975.098,0.000
1742814743.286,-954.590,-978.027,-312.988,-963.379,0.000
1742814743.290,-937.988,-962.402,-520.996,-946.289,0.000
1742814743.294,-942.871,-959.473,-641.113,-969.727,0.000
1742814743.298,-944.824,-962.402,-605.469,-967.773,0.000
1742814743.302,-937.012,-964.844,-428.223,-955.566,0.000
1742814743.306,-932.617,-972.656,-348.633,-959.961,0.000
1742814743.309,-938.965,-979.492,-469.238,-957.520,0.000
1742814743.313,-945.312,-975.098,-625.000,-944.336,0.000
1742814743.317,-955.078,-973.145,-609.863,-952.637,0.000
1742814743.321,-963.379,-974.609,-456.543,-954.102,0.000
1742814743.325,-956.543,-975.586,-226.074,-955.078,0.000
1742814743.329,-942.383,-966.797,-340.820,-963.867,0.000
1742814743.333,-931.641,-951.660,-671.387,-951.172,0.000
1742814743.337,-928.711,-949.707,-648.926,-943.848,0.000
1742814743.341,-928.711,-961.426,-450.684,-932.129,0.000
1742814743.345,-917.969,-964.844,-345.703,-919.434,0.000
1742814743.349,-914.062,-965.332,-433.105,-924.805,0.000
1742814743.352,-931.152,-975.586,-599.121,-933.105,0.000
1742814743.356,-943.848,-972.656,-637.695,-932.617,0.000
1742814743.360,-948.242,-968.262,-469.238,-932.617,0.000
1742814743.364,-944.824,-959.473,-300.293,-928.223,0.000
1742814743.368,-940.918,-949.219,-344.727,-934.570,0.000
1742814743.372,-940.430,-947.754,-567.383,-959.473,0.000
1742814743.376,-940.918,-951.172,-678.223,-962.891,0.000
1742814743.380,-948.242,-958.984,-533.691,-956.543,0.000
1742814743.384,-952.637,-960.938,-307.617,-950.684,0.000
1742814743.388,-952.637,-969.727,-351.562,-960.449,0.000
1742814743.392,-954.102,-976.562,-610.840,-974.121,0.000
1742814743.395,-968.262,-972.168,-690.430,-978.516,0.000
1742814743.399,-979.492,-973.145,-536.621,-980.957,0.000
1742814743.403,-988.281,-980.469,-359.863,-979.004,0.000
1742814743.407,-990.723,-979.980,-363.281,-969.727,0.000
1742814743.411,-987.305,-974.609,-544.922,-953.613,0.000
1742814743.415,-988.281,-975.098,-618.652,-970.703,0.000
1742814743.419,-978.516,-978.027,-510.742,-975.098,0.000
1742814743.423,-965.332,-979.004,-392.578,-942.383,0.000
1742814743.427,-950.684,-972.168,-360.840,-937.500,0.000
1742814743.431,-938.965,-967.285,-511.719,-936.035,0.000
1742814743.435,-947.266,-971.680,-670.898,-940.430,0.000
1742814743.438,-947.266,-966.797,-619.141,-937.500,0.000
1742814743.442,-935.059,-963.867,-371.094,-916.504,0.000
1742814743.446,-937.012,-968.750,-280.273,-916.992,0.000
1742814743.450,-942.871,-972.168,-498.047,-934.570,0.000
1742814743.454,-937.500,-970.703,-637.695,-932.129,0.000
1742814743.458,-931.152,-975.586,-571.289,-920.410,0.000
1742814743.462,-930.664,-976.074,-296.875,-955.078,0.000
1742814743.466,-924.805,-967.773,-217.773,-958.008,0.000
1742814743.470,-923.340,-964.355,-472.656,-929.688,0.000
1742814743.473,-936.035,-964.355,-622.070,-948.730,0.000
1742814743.477,-952.637,-964.844,-583.008,-961.914,0.000
1742814743.481,-953.125,-957.031,-427.734,-957.031,0.000
1742814743.485,-935.547,-951.660,-306.641,-939.941,0.000
1742814743.489,-933.105,-961.426,-418.457,-929.199,0.000
1742814743.493,-949.707,-965.820,-633.301,-948.730,0.000
1742814743.497,-956.543,-970.215,-613.770,-955.566,0.000
1742814743.501,-958.496,-979.980,-425.293,-937.012,0.000
1742814743.505,-954.590,-978.516,-190.430,-950.684,0.000
1742814743.509,-953.613,-972.656,-265.137,-983.887,0.000
1742814743.513,-955.078,-956.543,-625.000,-969.238,0.000
1742814743.516,-952.148,-948.242,-634.766,-951.172,0.000
1742814743.520,-958.008,-958.984,-438.477,-952.637,0.000
1742814743.524,-956.543,-965.332,-270.996,-958.496,0.000
1742814743.528,-940.918,-965.820,-349.609,-945.801,0.000
1742814743.532,-941.895,-965.820,-569.824,-946.777,0.000
1742814743.536,-951.172,-975.586,-626.953,-956.543,0.000
1742814743.540,-957.520,-981.445,-494.629,-955.566,0.000
1742814743.544,-960.938,-976.562,-291.992,-951.660,0.000
1742814743.548,-959.961,-980.957,-278.809,-945.312,0.000
1742814743.552,-950.684,-972.168,-501.465,-950.684,0.000
1742814743.555,-949.707,-962.402,-613.281,-953.613,0.000
1742814743.559,-951.172,-965.332,-520.996,-932.617,0.000
1742814743.563,-946.289,-971.191,-242.676,-926.758,0.000
1742814743.567,-938.965,-974.609,-166.992,-949.707,0.000
1742814743.571,-937.988,-978.027,-508.301,-956.055,0.000
1742814743.575,-953.125,-981.934,-646.484,-957.520,0.000
1742814743.579,-963.379,-975.586,-512.207,-964.355,0.000
1742814743.583,-959.961,-967.773,-290.527,-956.543,0.000
1742814743.587,-951.172,-959.961,-247.559,-963.379,0.000
1742814743.591,-952.148,-960.938,-455.078,-961.914,0.000
1742814743.595,-959.473,-967.773,-580.078,-964.355,0.000
1742814743.598,-958.984,-973.145,-530.762,-974.609,0.000
1742814743.602,-950.684,-977.051,-342.285,-951.172,0.000
1742814743.606,-944.824,-984.863,-225.586,-939.453,0.000
1742814743.610,-948.730,-982.422,-395.996,-953.613,0.000
1742814743.614,-957.031,-974.609,-611.328,-967.773,0.000
1742814743.618,-967.773,-970.703,-576.660,-954.102,0.000
1742814743.622,-981.934,-972.168,-354.492,-945.801,0.000
1742814743.626,-986.816,-974.609,-198.242,-960.449,0.000
1742814743.630,-972.168,-972.656,-393.555,-974.121,0.000
1742814743.634,-968.750,-971.191,-604.004,-958.496,0.000
1742814743.638,-971.680,-969.238,-553.223,-940.918,0.000
1742814743.641,-968.262,-975.098,-360.840,-937.988,0.000
1742814743.645,-965.332,-976.074,-175.781,-938.965,0.000
1742814743.649,-967.773,-973.145,-336.914,-951.172,0.000
1742814743.653,-972.656,-973.145,-583.984,-965.332,0.000
1742814743.657,-975.098,-975.586,-571.289,-972.656,0.000
1742814743.661,-970.703,-970.703,-439.941,-965.332,0.000
1742814743.665,-958.496,-964.355,-264.160,-951.660,0.000
1742814743.669,-954.102,-971.680,0.000,-969.727,0.000
1742814743.673,-955.078,-970.215,0.000,-979.004,0.000
1742814743.677,-959.961,-967.773,0.000,-965.332,0.000
1742814743.681,-967.285,-978.027,0.000,-962.402,0.000
1742814743.684,-963.867,-984.863,0.000,-958.984,0.000
1742814743.688,-950.195,-976.562,0.000,-951.660,0.000
1742814743.692,-945.801,-965.820,0.000,-941.895,0.000
1742814743.696,-954.102,-964.355,0.000,-934.570,0.000
1742814743.700,-955.566,-969.238,0.000,-947.754,0.000
1742814743.704,-942.383,-973.633,0.000,-960.938,0.000
1742814743.708,-932.129,-972.656,0.000,-930.664,0.000
1742814743.712,-936.523,-975.098,0.000,-936.035,0.000
1742814743.716,-953.125,-981.445,-622.559,-954.590,0.000
1742814743.720,-965.332,-982.910,-519.531,-952.637,0.000
1742814743.724,-970.215,-979.492,-312.012,-947.754,0.000
1742814743.727,-967.285,-978.516,-287.109,-949.219,0.000
1742814743.731,-969.727,-975.586,-498.535,-958.496,0.000
1742814743.735,-979.004,-966.309,-599.609,-965.820,0.000
1742814743.739,-981.445,-964.844,-519.531,-953.613,0.000
1742814743.743,-977.051,-967.773,-289.551,-941.406,0.000
1742814743.747,-974.121,-974.121,-72.266,-971.191,0.000
1742814743.751,-966.309,-971.680,-372.559,-976.074,0.000
1742814743.755,-975.586,-968.262,-670.898,-963.867,0.000
1742814743.759,-980.469,-968.750,-537.598,-955.078,0.000
1742814743.763,-972.168,-964.844,-323.242,-951.172,0.000
1742814743.766,-961.914,-965.332,-294.434,-954.590,0.000
1742814743.770,-958.008,-958.496,-477.539,-958.008,0.000
1742814743.774,-959.961,-954.102,-622.559,-951.172,0.000
1742814743.778,-960.938,-964.844,-575.684,-951.172,0.000
1742814743.782,-962.891,-971.680,-343.750,-953.125,0.000
1742814743.786,-949.219,-972.656,-197.754,-937.988,0.000
1742814743.790,-948.730,-968.262,-342.285,-969.238,0.000
1742814743.794,-965.820,-962.402,-566.895,-994.629,0.000
1742814743.798,-964.355,-959.961,-601.562,-969.238,0.000
1742814743.802,-954.102,-957.031,-406.738,-953.613,0.000
1742814743.805,-953.613,-958.496,-212.402,-958.008,0.000
1742814743.809,-958.008,-965.820,-369.141,-965.332,0.000
1742814743.813,-965.332,-969.727,-633.789,-951.172,0.000
1742814743.817,-965.332,-972.168,-599.121,-941.406,0.000
1742814743.821,-958.496,-979.980,-428.711,-953.125,0.000
1742814743.825,-954.102,-981.445,-271.973,-959.473,0.000
1742814743.829,-953.125,-976.562,-323.730,-958.008,0.000
1742814743.833,-956.055,-974.121,-545.898,-952.148,0.000
1742814743.837,-968.750,-970.703,-579.590,-984.863,0.000
1742814743.841,-981.934,-970.703,-462.891,-990.723,0.000
1742814743.845,-981.445,-970.215,-314.453,-969.727,0.000
1742814743.848,-971.680,-968.262,-337.402,-968.750,0.000
1742814743.852,-968.262,-970.215,-552.246,-971.680,0.000
1742814743.856,-974.609,-971.680,-647.461,-974.609,0.000
1742814743.860,-977.539,-964.355,-479.492,-956.055,0.000
1742814743.864,-978.516,-967.285,-237.305,-962.891,0.000
1742814743.868,-981.934,-979.492,-299.316,-981.934,0.000
1742814743.872,-982.910,-968.750,-565.918,-980.957,0.000
1742814743.876,-981.445,-962.402,-613.281,-969.727,0.000
1742814743.880,-977.539,-970.215,-441.895,-973.145,0.000
1742814743.884,-961.914,-973.145,-249.512,-986.816,0.000
1742814743.887,-940.918,-965.820,-321.777,-953.613,0.000
1742814743.891,-931.152,-956.055,-525.879,-939.453,0.000
1742814743.895,-940.918,-961.914,-634.766,-943.359,0.000
1742814743.899,-945.312,-959.961,-554.688,-936.035,0.000
1742814743.903,-941.406,-958.496,-365.234,-931.152,0.000
1742814743.907,-942.871,-967.285,-323.242,-938.477,0.000
1742814743.911,-949.219,-969.238,-498.047,-959.961,0.000
1742814743.915,-953.125,-967.285,-652.832,-960.938,0.000
1742814743.919,-947.754,-972.168,-574.219,-930.664,0.000
1742814743.923,-939.453,-975.586,-342.285,-920.410,0.000
1742814743.927,-936.523,-973.633,-185.059,-942.871,0.000
1742814743.930,-942.383,-974.609,-410.156,-945.312,0.000
1742814743.934,-950.195,-975.586,-675.781,-946.777,0.000
1742814743.938,-957.031,-973.633,-591.309,-959.961,0.000
1742814743.942,-963.867,-966.309,-374.023,-962.402,0.000
1742814743.946,-965.332,-965.820,-329.102,-965.332,0.000
1742814743.950,-961.426,-967.285,-480.957,-954.102,0.000
1742814743.954,-951.660,-964.355,-628.906,-953.125,0.000
1742814743.958,-947.754,-964.355,-612.793,-961.914,0.000
1742814743.962,-945.801,-961.914,-447.754,-937.012,0.000
1742814743.966,-933.594,-965.332,-317.383,-917.969,0.000
1742814743.969,-938.477,-976.074,-399.902,-947.266,0.000
1742814743.973,-950.195,-976.074,-596.680,-965.820,0.000
1742814743.977,-960.938,-975.586,-638.184,-957.520,0.000
1742814743.981,-972.656,-980.469,-484.863,-958.984,0.000
1742814743.985,-975.098,-979.492,-263.184,-974.609,0.000
1742814743.989,-974.121,-975.098,-361.816,-977.539,0.000
1742814743.993,-980.957,-973.633,-642.090,-976.562,0.000
1742814743.997,-990.723,-971.680,-664.062,-981.934,0.000
1742814744.001,-983.398,-964.844,-486.328,-965.332,0.000
1742814744.005,-977.051,-969.727,-334.961,-962.402,0.000
1742814744.009,-969.238,-967.773,-403.809,-959.473,0.000
1742814744.012,-959.473,-963.379,-586.914,-950.684,0.000
1742814744.016,-959.961,-961.914,-636.230,-956.055,0.000
1742814744.020,-955.566,-961.914,-498.047,-943.848,0.000
1742814744.024,-944.824,-967.773,-354.980,-931.641,0.000
1742814744.028,-949.219,-970.703,-374.512,-939.941,0.000
1742814744.032,-953.613,-969.238,-527.344,-958.496,0.000
1742814744.036,-958.496,-966.797,-671.875,-967.285,0.000
1742814744.040,-959.473,-958.496,-572.754,-953.125,0.000
1742814744.044,-951.660,-947.266,-350.586,-950.684,0.000
1742814744.048,-950.684,-948.242,-346.191,-960.449,0.000
1742814744.052,-950.684,-947.754,-579.590,-962.402,0.000
1742814744.055,-948.730,-947.754,-696.289,-956.543,0.000
1742814744.059,-951.660,-956.543,-564.453,-955.078,0.000
1742814744.063,-951.660,-965.332,-356.445,-954.590,0.000
1742814744.067,-944.824,-961.914,-365.234,-956.543,0.000
1742814744.071,-949.219,-962.891,-559.082,-955.566,0.000
1742814744.075,-961.914,-969.238,-625.488,-979.980,0.000
1742814744.079,-964.844,-964.844,-556.641,-979.004,0.000
1742814744.083,-958.984,-961.914,-429.199,-942.383,0.000
1742814744.087,-958.984,-963.379,-359.863,-937.012,0.000
1742814744.091,-966.309,-964.355,-503.418,-952.637,0.000
1742814744.095,-977.051,-964.355,-667.969,-963.867,0.000
1742814744.098,-982.910,-966.797,-638.184,-962.891,0.000
1742814744.102,-966.797,-961.914,-420.898,-952.148,0.000
1742814744.106,-946.777,-957.031,-326.660,-942.383,0.000
1742814744.110,-933.594,-955.566,-478.027,-947.754,0.000
1742814744.114,-937.500,-956.543,-655.273,-942.871,0.000
1742814744.118,-948.730,-959.961,-620.605,-940.918,0.000
1742814744.122,-949.707,-952.148,-414.551,-956.543,0.000
1742814744.126,-937.988,-945.801,-359.375,-942.871,0.000
1742814744.130,-928.711,-957.520,-507.812,-939.941,0.000
1742814744.134,-943.359,-961.426,-645.996,-957.520,0.000
1742814744.138,-945.312,-955.078,-632.324,-951.172,0.000
1742814744.141,-933.594,-957.031,-513.184,-932.129,0.000
1742814744.145,-929.199,-965.820,-362.305,-921.387,0.000
1742814744.149,-929.199,-969.238,-444.824,-931.641,0.000
1742814744.153,-937.012,-966.309,-660.156,-946.777,0.000
1742814744.157,-948.242,-961.914,-661.621,-947.754,0.000
1742814744.161,-950.684,-964.355,-514.648,-928.223,0.000
1742814744.165,-953.125,-972.656,-288.086,-948.242,0.000
1742814744.169,-949.707,-970.215,-330.566,-972.168,0.000
1742814744.173,-947.754,-960.938,-658.691,-952.637,0.000
1742814744.177,-954.590,-969.727,-702.148,-943.359,0.000
1742814744.180,-959.961,-981.445,-529.785,-946.777,0.000
1742814744.184,-958.496,-978.516,-392.578,-957.031,0.000
1742814744.188,-965.332,-983.398,-441.895,-975.098,0.000
1742814744.192,-975.098,-979.980,-615.234,-978.516,0.000
1742814744.196,-984.863,-972.656,-700.684,-976.562,0.000
1742814744.200,-987.305,-973.633,-574.219,-979.492,0.000
1742814744.204,-971.680,-967.773,-365.723,-965.332,0.000
1742814744.208,-965.820,-968.262,-364.258,-969.238,0.000
1742814744.212,-974.609,-972.656,-541.992,-993.164,0.000
1742814744.216,-982.422,-972.656,-699.219,-992.676,0.000
1742814744.219,-979.980,-972.656,-627.930,-973.145,0.000
1742814744.223,-959.473,-968.750,-387.207,-945.801,0.000
1742814744.227,-945.312,-964.844,-350.586,-949.707,0.000
1742814744.231,-950.684,-961.426,-574.219,-966.797,0.000
1742814744.235,-945.801,-956.055,-707.520,-956.543,0.000
1742814744.239,-936.035,-953.613,-616.699,-959.961,0.000
1742814744.243,-931.152,-961.914,-422.852,-959.473,0.000
1742814744.247,-924.316,-969.727,-377.441,-946.289,0.000
1742814744.251,-926.758,-975.586,-519.043,-931.152,0.000
1742814744.255,-945.801,-980.957,-635.254,-956.543,0.000
1742814744.259,-951.172,-983.887,-577.637,-972.656,0.000
1742814744.262,-944.824,-978.516,-442.383,-933.594,0.000
1742814744.266,-942.871,-968.262,-360.840,-909.180,0.000
1742814744.270,-946.777,-971.191,-494.629,-920.898,0.000
1742814744.274,-949.219,-965.332,-692.871,-941.895,0.000
1742814744.278,-951.660,-961.914,-679.199,-949.219,0.000
1742814744.282,-956.055,-967.773,-476.074,-930.176,0.000
1742814744.286,-950.195,-965.820,-340.332,-919.922,0.000
1742814744.290,-957.520,-966.797,-493.652,-936.523,0.000
1742814744.294,-968.262,-969.238,-672.363,-947.266,0.000
1742814744.298,-974.121,-962.402,-651.367,-955.566,0.000
1742814744.301,-983.398,-962.402,-433.105,-975.586,0.000
1742814744.305,-976.074,-973.145,-317.871,-970.215,0.000
1742814744.309,-966.309,-965.332,-477.539,-955.566,0.000
1742814744.313,-961.426,-956.055,-639.648,-957.520,0.000
1742814744.317,-963.379,-958.496,-661.133,-940.918,0.000
1742814744.321,-958.008,-955.078,-522.949,-931.152,0.000
1742814744.325,-947.754,-958.984,-376.953,-939.941,0.000
1742814744.329,-949.219,-965.332,-428.711,-955.566,0.000
1742814744.333,-953.613,-965.332,-611.328,-956.543,0.000
1742814744.337,-959.473,-962.402,-704.590,-962.891,0.000
1742814744.341,-959.961,-962.402,-544.922,-964.844,0.000
1742814744.344,-962.891,-969.727,-292.480,-972.168,0.000
1742814744.348,-958.008,-966.309,-340.820,-973.633,0.000
1742814744.352,-955.078,-966.309,-621.094,-960.938,0.000
1742814744.356,-962.891,-970.703,-700.195,-955.566,0.000
1742814744.360,-959.473,-970.215,-549.805,-955.078,0.000
1742814744.364,-951.660,-975.586,-397.949,-951.660,0.000
1742814744.368,-943.359,-974.121,-416.016,-944.336,0.000
1742814744.372,-945.801,-977.051,-566.895,-952.637,0.000
1742814744.376,-956.543,-981.934,-693.359,-963.379,0.000
1742814744.380,-958.008,-981.445,-604.004,-964.355,0.000
1742814744.384,-955.566,-985.352,-416.016,-947.754,0.000
1742814744.387,-954.102,-986.328,-369.629,-944.824,0.000
1742814744.391,-961.426,-979.492,-510.254,-963.867,0.000
1742814744.395,-973.633,-979.004,-672.852,-967.285,0.000
1742814744.399,-978.516,-970.703,-612.305,-958.984,0.000
1742814744.403,-970.703,-961.914,-391.113,-957.031,0.000
1742814744.407,-960.938,-971.191,-281.250,-973.145,0.000
1742814744.411,-958.984,-968.750,-497.070,-975.098,0.000
1742814744.415,-962.402,-962.402,-691.895,-952.637,0.000
1742814744.419,-967.773,-961.914,-609.375,-936.035,0.000
1742814744.423,-970.215,-961.426,-408.691,-933.594,0.000
1742814744.427,-960.938,-963.867,-349.121,-940.918,0.000
1742814744.430,-957.520,-971.680,-468.750,-952.148,0.000
1742814744.434,-959.961,-968.262,-632.812,-964.355,0.000
1742814744.438,-971.680,-960.938,-617.676,-970.215,0.000
1742814744.442,-969.727,-968.750,-439.453,-961.914,0.000
1742814744.446,-955.078,-970.703,-357.422,-953.125,0.000
1742814744.450,-958.008,-972.656,-417.969,-972.656,0.000
1742814744.454,-965.820,-979.492,-594.238,-987.793,0.000
1742814744.458,-965.332,-974.121,-689.941,-959.473,0.000
1742814744.462,-958.008,-972.168,-478.516,-952.148,0.000
1742814744.466,-946.777,-976.074,0.000,0.000,0.000
1742814744.470,-944.336,-968.262,0.000,0.000,0.000
1742814744.473,-942.383,-966.309,0.000,0.000,0.000
1742814744.477,-951.172,-981.445,0.000,0.000,0.000
1742814744.481,-954.102,-985.840,0.000,0.000,0.000
1742814744.485,-939.453,-989.258,0.000,0.000,0.000
1742814744.489,-932.617,-992.676,0.000,0.000,0.000
1742814744.493,-934.082,-987.305,0.000,0.000,0.000
1742814744.497,-943.848,-983.398,0.000,0.000,0.000
1742814744.501,-941.406,-974.121,0.000,0.000,0.000
1742814744.505,-936.035,-969.238,0.000,0.000,0.000
1742814744.509,-934.570,-973.145,0.000,0.000,0.000
1742814744.513,0.000,-979.492,-539.062,-940.918,0.000
1742814744.516,0.000,-983.398,-658.691,-938.965,0.000
1742814744.520,0.000,-982.910,-558.594,-930.664,0.000
1742814744.524,0.000,-990.723,-315.918,-935.547,0.000
1742814744.528,0.000,-994.141,-317.383,-951.172,0.000
1742814744.532,0.000,-983.398,-544.922,-969.727,0.000
1742814744.536,0.000,-972.168,-661.621,-962.891,0.000
1742814744.540,0.000,-968.750,-500.000,-972.656,0.000
1742814744.544,0.000,-970.703,-308.105,-991.699,0.000
1742814744.548,0.000,-978.516,-387.695,-978.516,0.000
1742814744.552,0.000,-978.027,-526.367,-972.656,0.000
1742814744.555,0.000,-979.004,-647.949,-974.121,0.000
1742814744.559,-992.188,-987.305,-613.281,-979.004,0.000
1742814744.563,-994.141,-986.816,-422.363,-979.004,0.000
1742814744.567,-998.047,-987.793,-346.680,-979.980,0.000
1742814744.571,-987.793,-979.492,-499.512,-979.980,0.000
1742814744.575,-984.375,-977.539,-665.527,-977.051,0.000
1742814744.579,-991.699,-981.445,-597.656,-967.285,0.000
1742814744.583,-978.516,-987.305,-406.738,-956.543,0.000
1742814744.587,-967.773,-994.141,-242.188,-977.051,0.000
1742814744.591,-966.797,-985.840,-429.688,-968.262,0.000
1742814744.594,-955.078,-973.145,-685.059,-949.707,0.000
1742814744.598,-958.008,-970.215,-614.258,-951.660,0.000
1742814744.602,-962.891,-970.215,-424.316,-932.617,0.000
1742814744.606,0.000,-965.820,-367.188,-924.316,0.000
1742814744.610,0.000,-963.379,-476.562,-937.500,0.000
1742814744.614,0.000,-961.914,-634.277,-943.848,0.000
1742814744.618,0.000,-968.262,-661.133,-952.148,0.000
1742814744.622,0.000,-972.168,-473.145,-944.824,0.000
1742814744.626,0.000,-969.238,-282.715,-921.875,0.000
1742814744.630,0.000,-970.703,-341.309,-955.566,0.000
1742814744.634,0.000,-965.332,-561.523,-987.793,0.000
1742814744.637,0.000,-955.078,-687.012,-955.566,0.000
1742814744.641,0.000,-954.102,-502.930,-952.637,0.000
1742814744.645,0.000,-973.145,-306.641,-986.328,0.000
1742814744.649,0.000,-974.121,-408.203,-983.887,0.000
1742814744.653,-976.562,-969.727,-594.238,-979.492,0.000
1742814744.657,-966.309,-974.609,-359.375,-973.633,0.000
1742814744.661,-962.402,-968.262,-324.219,-963.867,0.000
1742814744.665,-951.660,-967.773,-535.645,-952.637,0.000
1742814744.669,-955.566,-972.656,-662.109,-948.730,0.000
1742814744.673,-959.961,-974.121,-566.895,-941.406,0.000
1742814744.677,-955.566,-973.633,-375.000,-948.242,0.000
1742814744.681,-953.613,-973.633,-342.773,-944.824,0.000
1742814744.685,-954.102,-978.516,-527.832,-940.430,0.000
1742814744.688,-963.867,-982.422,-608.398,-970.703,0.000
1742814744.692,-975.586,-983.887,-555.664,-981.445,0.000
1742814744.696,-975.098,-989.746,-440.430,-954.590,0.000
1742814744.700,0.000,-988.281,0.000,0.000,0.000
1742814744.704,0.000,-985.352,0.000,0.000,0.000
1742814744.708,0.000,-983.398,0.000,0.000,0.000
1742814744.712,0.000,-970.215,0.000,0.000,0.000
1742814744.716,0.000,-967.773,0.000,0.000,0.000
1742814744.720,0.000,-966.797,0.000,0.000,0.000
1742814744.724,0.000,-972.656,0.000,0.000,0.000
1742814744.728,0.000,-977.539,0.000,0.000,0.000
1742814744.731,0.000,-976.074,0.000,0.000,0.000
1742814744.735,0.000,-974.121,0.000,0.000,0.000
1742814744.739,0.000,-965.332,0.000,0.000,0.000
1742814744.743,0.000,-958.008,0.000,0.000,0.000
1742814744.747,-970.703,-961.426,-323.730,-953.613,0.000
1742814744.751,-976.074,-965.332,-453.125,-971.680,0.000
1742814744.755,-977.539,-964.844,-661.621,-976.562,0.000
1742814744.759,-981.445,-970.703,-654.785,-975.098,0.000
1742814744.763,-977.539,-969.238,-455.078,-972.656,0.000
1742814744.767,-972.168,-973.145,-285.645,-975.098,0.000
1742814744.771,-967.285,-976.074,-412.598,-964.844,0.000
1742814744.774,-974.609,-962.891,-632.324,-968.750,0.000
1742814744.778,-985.352,-960.938,-624.023,-967.773,0.000
1742814744.782,-976.074,-967.773,-439.453,-961.914,0.000
1742814744.786,-961.426,-960.938,-344.727,-958.008,0.000
1742814744.790,-949.219,-958.496,-441.406,-947.754,0.000
1742814744.794,-945.312,-968.750,-603.027,-957.031,0.000
1742814744.798,-944.824,-970.215,-653.320,-956.543,0.000
1742814744.802,-951.660,-968.262,-507.812,-950.195,0.000
1742814744.806,-953.125,-961.914,-341.797,-938.477,0.000
1742814744.810,-946.289,-964.355,-386.230,-940.430,0.000
1742814744.814,-946.289,-972.656,-568.359,-948.730,0.000
1742814744.817,-953.125,-974.121,-660.645,-947.266,0.000
1742814744.821,-951.660,-972.168,-543.945,-942.871,0.000
1742814744.825,-953.125,-983.887,-251.465,-967.285,0.000
1742814744.829,-949.219,-983.887,-251.953,-981.934,0.000
1742814744.833,-937.500,-973.145,-590.332,-959.473,0.000
1742814744.837,-949.219,-973.145,-672.363,-966.797,0.000
1742814744.841,-956.543,-966.797,-534.668,-951.172,0.000
1742814744.845,-956.055,-970.703,-357.422,-950.195,0.000
1742814744.849,-958.984,-974.609,-364.258,-971.680,0.000
1742814744.853,-959.961,-975.098,-544.434,-956.055,0.000
1742814744.857,-970.703,-973.145,-648.438,-954.102,0.000
1742814744.860,-972.168,-971.680,-547.852,-958.008,0.000
1742814744.864,-961.914,-977.051,-356.445,-937.012,0.000
1742814744.868,-949.707,-980.469,-303.223,-921.387,0.000
1742814744.872,-940.918,-972.168,-481.445,-955.078,0.000
1742814744.876,-945.801,-964.844,-679.199,-962.891,0.000
1742814744.880,-951.172,-962.402,-618.164,-934.082,0.000
1742814744.884,-953.613,-967.773,-352.539,-944.336,0.000
1742814744.888,-956.543,-971.680,-304.199,-945.312,0.000
1742814744.892,-959.473,-966.309,-524.902,-947.754,0.000
1742814744.896,-971.191,-966.309,-674.316,-958.496,0.000
1742814744.900,-977.051,-965.332,-620.605,-953.125,0.000
1742814744.903,-964.355,-966.797,-416.016,-944.824,0.000
1742814744.907,-946.289,-966.797,-291.016,-938.965,0.000
1742814744.911,-931.641,-954.590,-446.289,-926.758,0.000
1742814744.915,-933.594,-950.684,-599.121,-953.125,0.000
1742814744.919,-951.172,-960.449,-583.496,-976.562,0.000
1742814744.923,-955.566,-967.773,-467.285,-942.383,0.000
1742814744.927,-949.219,-972.168,-328.125,-942.871,0.000
1742814744.931,-950.195,-974.609,-446.777,-957.031,0.000
1742814744.935,-948.730,-968.262,-634.277,-950.684,0.000
1742814744.939,-951.172,-962.402,-614.746,-942.871,0.000
1742814744.942,-950.684,-969.238,-457.520,-942.871,0.000
1742814744.946,-943.848,-967.285,-312.988,-941.895,0.000
1742814744.950,-942.383,-962.891,-391.113,-951.660,0.000
1742814744.954,-958.496,-967.285,-591.797,-961.914,0.000
1742814744.958,-965.332,-971.680,-616.211,-954.102,0.000
1742814744.962,-960.449,-976.562,-450.684,-971.680,0.000
1742814744.966,-956.055,-977.539,-339.844,-973.145,0.000
1742814744.970,-951.172,-975.098,-415.527,-953.125,0.000
1742814744.974,-954.590,-975.098,-575.195,-959.961,0.000
1742814744.978,-963.379,-977.539,-638.184,-961.426,0.000
1742814744.982,-961.914,-977.051,-528.809,-949.219,0.000
1742814744.985,-951.172,-970.215,-348.145,-942.383,0.000
1742814744.989,-955.566,-966.309,-374.512,-955.078,0.000
1742814744.993,-968.750,-966.309,-572.754,-966.309,0.000
1742814744.997,-976.074,-966.309,-662.109,-965.820,0.000
1742814745.001,-976.562,-973.145,-551.758,-946.289,0.000
1742814745.005,-978.516,-981.445,-266.113,-958.496,0.000
1742814745.009,-974.121,-983.887,-241.699,-985.840,0.000
1742814745.013,-968.750,-979.492,-570.801,-968.750,0.000
1742814745.017,-968.750,-970.703,-677.246,-957.520,0.000
1742814745.021,-972.168,-961.426,-562.988,-967.773,0.000
1742814745.024,-974.609,-963.867,-371.582,-970.215,0.000
1742814745.028,-968.262,-971.680,-355.469,-966.309,0.000
1742814745.032,-958.496,-973.633,-528.320,-963.379,0.000
1742814745.036,-957.031,-972.168,-654.785,-954.590,0.000
1742814745.040,-958.984,-974.121,-601.562,-954.590,0.000
1742814745.044,-955.566,-974.609,-372.559,-955.078,0.000
1742814745.048,-948.242,-976.074,-295.410,-950.195,0.000
1742814745.052,-946.289,-974.121,-455.078,-965.820,0.000
1742814745.056,-943.359,-965.332,-632.812,-960.449,0.000
1742814745.060,-940.918,-958.496,-628.418,-941.406,0.000
1742814745.064,-944.336,-955.078,-404.785,-945.312,0.000
1742814745.067,-942.383,-958.984,-301.758,-941.406,0.000
1742814745.071,-938.965,-962.891,-485.352,-936.035,0.000
1742814745.075,-942.383,-965.332,-670.898,-946.777,0.000
1742814745.079,-952.637,-967.285,-628.418,-949.219,0.000
1742814745.083,-961.914,-972.168,-428.223,-944.824,0.000
1742814745.087,-957.031,-973.145,-326.172,-949.707,0.000
1742814745.091,-954.590,-967.285,-441.895,-947.754,0.000
1742814745.095,-961.426,-969.238,-587.402,-966.309,0.000
1742814745.099,-975.098,-970.215,-611.328,-974.609,0.000
1742814745.103,-980.957,-972.656,-494.141,-957.520,0.000
1742814745.106,-970.703,-973.633,-319.824,-955.566,0.000
1742814745.110,-964.844,-969.238,-378.906,-967.285,0.000
1742814745.114,-959.961,-972.168,-626.465,-975.098,0.000
1742814745.118,-958.984,-975.098,-675.781,-963.867,0.000
1742814745.122,-957.520,-972.656,-491.699,-943.359,0.000
1742814745.126,-951.660,-965.332,-287.598,-937.012,0.000
1742814745.130,-958.008,-965.820,-360.840,-953.613,0.000
1742814745.134,-971.680,-971.680,-605.469,-964.844,0.000
1742814745.138,-984.375,-971.191,-664.062,-968.262,0.000
1742814745.142,-990.723,-975.586,-489.258,-975.586,0.000
1742814745.146,-987.305,-979.492,-301.270,-983.398,0.000
1742814745.149,-977.051,-971.680,-338.867,-981.445,0.000
1742814745.153,-981.445,-970.215,-545.410,-986.328,0.000
1742814745.157,-991.699,-977.051,-640.625,-1000.000,0.000
1742814745.161,-976.562,-969.238,-551.270,-996.582,0.000
1742814745.165,-964.844,-967.285,-372.070,-975.098,0.000
1742814745.169,-959.961,-976.074,-335.449,-965.820,0.000
1742814745.173,-959.473,-976.562,-531.738,-971.191,0.000
1742814745.177,-955.566,-978.516,-684.570,-970.703,0.000
1742814745.181,-952.637,-983.887,-593.750,-955.078,0.000
1742814745.185,-956.055,-987.793,-340.332,-953.613,0.000
1742814745.189,-945.801,-990.723,-276.855,-960.938,0.000
1742814745.192,-942.871,-987.793,-511.719,-966.309,0.000
1742814745.196,-954.590,-982.422,-678.223,-956.055,0.000
1742814745.200,-962.891,-975.586,-543.945,-957.520,0.000
1742814745.204,-973.145,-975.098,-336.426,-975.586,0.000
1742814745.208,-972.656,-975.098,-360.840,-951.172,0.000
1742814745.212,-975.098,-981.445,-500.977,-944.824,0.000
1742814745.216,-979.980,-984.375,-645.508,-954.590,0.000
1742814745.220,-978.516,-980.957,-629.883,-961.426,0.000
1742814745.224,-981.934,-986.328,-429.199,-962.891,0.000
1742814745.228,-975.586,-983.398,-302.734,-969.238,0.000
1742814745.232,-969.727,-985.840,-434.570,-984.375,0.000
1742814745.235,-980.957,-989.746,-621.094,-996.582,0.000
1742814745.239,-996.582,-979.980,-609.375,-995.117,0.000
1742814745.243,-996.094,-970.215,-432.617,-970.703,0.000
1742814745.247,-987.793,-975.586,-220.215,-980.957,0.000
1742814745.251,-989.258,-988.281,-386.719,-997.559,0.000
1742814745.255,-986.816,-983.398,-674.316,-973.145,0.000
1742814745.259,-985.840,-978.027,-622.559,-962.891,0.000
1742814745.263,0.000,-982.422,-445.312,-966.309,0.000
1742814745.267,0.000,-985.352,-356.445,-958.496,0.000
1742814745.271,0.000,-984.863,-444.824,-954.102,0.000
1742814745.275,0.000,-985.840,-619.141,-958.496,0.000
1742814745.278,0.000,-984.863,-657.227,-955.078,0.000
1742814745.282,0.000,-983.398,-479.492,-948.730,0.000
1742814745.286,0.000,-978.516,-307.129,-937.500,0.000
1742814745.290,0.000,-973.145,-324.707,-954.102,0.000
1742814745.294,0.000,-971.191,-541.992,-978.516,0.000
1742814745.298,0.000,-969.238,-693.848,-960.449,0.000
1742814745.302,0.000,-965.332,-528.809,-939.941,0.000
1742814745.306,0.000,-963.379,-314.453,-945.801,0.000
1742814745.310,-979.492,-963.867,-381.836,-951.660,0.000
1742814745.314,-965.332,-964.844,-597.656,-941.406,0.000
1742814745.317,-958.496,-970.703,-670.898,-951.660,0.000
1742814745.321,-954.590,-967.773,-537.109,-958.008,0.000
1742814745.325,-963.867,-964.355,-349.121,-948.730,0.000
1742814745.329,-966.797,-962.891,-349.609,-951.660,0.000
1742814745.333,-955.078,-958.984,-517.090,-958.496,0.000
1742814745.337,-945.801,-960.938,-603.027,-982.422,0.000
1742814745.341,-950.684,-962.891,-546.875,-986.328,0.000
1742814745.345,-955.078,-962.402,-385.254,-957.031,0.000
1742814745.349,-952.148,-965.332,-325.684,-960.938,0.000
1742814745.353,-948.730,-964.355,-493.164,-981.934,0.000
1742814745.357,-985.840,-960.449,-657.715,-987.793,0.000
1742814745.360,-987.305,-956.055,-592.773,-981.934,0.000
1742814745.364,-979.004,-956.055,-379.395,-974.609,0.000
1742814745.368,-961.914,-960.938,-318.359,-970.703,0.000
1742814745.372,-956.055,-961.426,-501.953,-971.680,0.000
1742814745.376,-955.566,-963.379,-643.555,-953.125,0.000
1742814745.380,-953.613,-970.215,-559.082,-959.961,0.000
1742814745.384,-955.566,-979.492,-361.328,-974.121,0.000
1742814745.388,-949.707,-977.539,-339.355,-945.801,0.000
1742814745.392,-943.848,-970.215,-452.637,-953.613,0.000
1742814745.395,-943.359,-968.262,-619.629,-957.031,0.000
1742814745.399,-944.824,-961.914,-628.906,-942.871,0.000
1742814745.403,-933.594,-960.449,-451.660,-941.895,0.000
1742814745.407,-921.875,-968.262,-278.320,-938.965,0.000
1742814745.411,-926.270,-971.680,-374.023,-927.734,0.000
1742814745.415,-930.176,-965.820,-636.719,-918.945,0.000
1742814745.419,-927.246,-952.148,-624.023,-915.527,0.000
1742814745.423,-929.688,-952.148,-437.500,-919.922,0.000
1742814745.427,-937.988,-965.820,-149.414,-956.055,0.000
1742814745.431,-938.965,-961.914,-258.789,-958.984,0.000
1742814745.435,-936.523,-955.078,-645.020,-930.664,0.000
1742814745.438,-946.777,-956.055,-627.930,-931.152,0.000
1742814745.442,-952.637,-951.660,-455.566,-934.570,0.000
1742814745.446,-946.777,-952.148,-324.707,-934.082,0.000
1742814745.450,-944.336,-954.102,-357.422,-937.012,0.000
1742814745.454,-943.848,-958.496,-548.340,-939.941,0.000
1742814745.458,-949.219,-964.355,-636.230,-945.801,0.000
1742814745.462,-954.590,-964.844,-519.043,-934.082,0.000
1742814745.466,-957.031,-969.238,-320.801,-918.945,0.000
1742814745.470,-958.984,-976.074,-295.410,-938.965,0.000
1742814745.474,-961.426,-976.074,-522.461,-969.727,0.000
1742814745.477,-966.309,-973.633,-670.410,-970.703,0.000
1742814745.481,-964.844,-964.844,-549.805,-949.707,0.000
1742814745.485,-963.379,-958.984,-228.027,-955.078,0.000
1742814745.489,-974.609,-966.309,-227.539,-979.492,0.000
1742814745.493,-979.980,-959.961,-557.129,-968.262,0.000
1742814745.497,0.000,-955.566,-646.484,-958.984,0.000
1742814745.501,0.000,-963.867,-560.059,-955.566,0.000
1742814745.505,0.000,-973.145,-357.910,-956.055,0.000
1742814745.509,0.000,-976.562,-302.734,-958.496,0.000
1742814745.513,0.000,-972.656,-498.047,-956.543,0.000
1742814745.517,0.000,-964.844,-622.070,-957.520,0.000
1742814745.520,0.000,-963.379,-559.570,-947.266,0.000
1742814745.524,0.000,-964.355,-375.488,-939.453,0.000
1742814745.528,0.000,-965.820,-293.457,-945.312,0.000
1742814745.532,0.000,-971.680,-428.223,-964.844,0.000
1742814745.536,0.000,-969.727,-657.715,-966.797,0.000
1742814745.540,0.000,-963.867,-637.207,-958.008,0.000
1742814745.544,-955.566,-970.215,-395.020,-947.754,0.000
1742814745.548,-954.590,-974.609,-267.090,-936.035,0.000
1742814745.552,-943.359,-966.797,-443.848,-935.547,0.000
1742814745.556,-946.289,-963.379,-647.949,-933.594,0.000
1742814745.560,-953.613,-961.914,-615.723,-935.059,0.000
1742814745.563,-956.055,-956.543,-417.480,-930.176,0.000
1742814745.567,-956.055,-958.008,-278.320,-934.082,0.000
1742814745.571,-954.590,-965.820,-411.621,-936.523,0.000
1742814745.575,-960.938,-971.191,-592.773,-961.914,0.000
1742814745.579,-959.961,-961.426,-592.773,-978.516,0.000
1742814745.583,-952.148,-956.055,-489.258,-937.500,0.000
1742814745.587,-949.219,-966.797,-328.125,-931.152,0.000
1742814745.591,-941.406,-967.285,-394.043,-944.824,0.000
1742814745.595,-939.941,-960.938,-621.094,-940.918,0.000
1742814745.599,-956.543,-963.379,-667.480,-943.359,0.000
1742814745.603,-956.543,-964.355,-499.023,-946.289,0.000
1742814745.606,-949.219,-967.773,-290.039,-950.195,0.000
1742814745.610,-952.637,-967.285,-322.754,-958.008,0.000
1742814745.614,-954.590,-968.750,-574.219,-960.449,0.000
1742814745.618,-954.590,-970.215,-631.348,-959.473,0.000
1742814745.622,-956.055,-967.285,-470.703,-970.703,0.000
1742814745.626,-954.102,-969.727,-335.449,-961.914,0.000
1742814745.630,-937.012,-970.703,-377.441,-936.523,0.000
1742814745.634,-929.688,-967.773,-541.992,-939.941,0.000
1742814745.638,-939.453,-965.332,-618.652,-944.336,0.000
1742814745.642,-946.289,-965.332,-549.316,-931.641,0.000
1742814745.646,-947.266,-964.355,-370.117,-928.711,0.000
1742814745.649,-939.453,-962.891,-327.148,-939.453,0.000
1742814745.653,-929.688,-960.449,-506.348,-942.871,0.000
1742814745.657,-934.082,-964.844,-647.949,-942.383,0.000
1742814745.661,-939.941,-966.797,-573.730,-936.523,0.000
1742814745.665,-938.965,-968.262,-251.465,-956.543,0.000
1742814745.669,-937.500,-968.262,-182.617,-966.797,0.000
1742814745.673,-952.148,-970.703,-532.227,-952.637,0.000
1742814745.677,-961.426,-978.027,-655.273,-956.543,0.000
1742814745.681,-957.520,-977.539,-571.777,-951.172,0.000
1742814745.685,-960.938,-978.516,-400.391,-946.777,0.000
1742814745.688,-957.520,-979.004,-345.215,-957.520,0.000
1742814745.692,-952.148,-970.703,-465.820,-956.543,0.000
1742814745.696,-958.984,-971.191,-626.953,-943.848,0.000
1742814745.700,-973.145,-976.074,-603.027,-944.824,0.000
1742814745.704,-976.562,-979.004,-390.625,-932.129,0.000
1742814745.708,-971.191,-984.863,-279.785,-925.293,0.000
1742814745.712,-964.355,-978.027,-402.344,-954.590,0.000
1742814745.716,-955.566,-966.797,-661.133,-966.797,0.000
1742814745.720,-966.309,-972.656,-668.457,-957.031,0.000
1742814745.724,-970.215,-979.492,-440.918,-956.543,0.000
1742814745.727,-962.891,-974.121,-321.777,-955.078,0.000
1742814745.731,-958.984,-967.285,-453.125,-953.613,0.000
1742814745.735,-955.566,-958.496,-613.770,-944.336,0.000
1742814745.739,-962.891,-958.984,-627.930,-949.707,0.000
1742814745.743,-962.891,-973.145,-477.539,-954.102,0.000
1742814745.747,-965.332,-982.910,-333.496,-948.242,0.000
1742814745.751,-961.426,-980.957,-409.668,-942.383,0.000
1742814745.755,-957.520,-976.562,-563.965,-956.055,0.000
1742814745.759,-955.566,-969.727,-606.445,-962.891,0.000
1742814745.763,-949.219,-970.215,-526.855,-936.035,0.000
1742814745.767,-947.754,-963.867,-347.656,-931.152,0.000
1742814745.770,-945.312,-953.125,-371.582,-938.477,0.000
1742814745.774,-949.707,-956.543,-595.703,-949.707,0.000
1742814745.778,-964.355,-967.773,-677.734,-953.125,0.000
1742814745.782,-969.238,-979.004,-515.137,-944.824,0.000
1742814745.786,-963.867,-982.910,-326.172,-950.195,0.000
1742814745.790,-961.426,-991.699,-357.422,-964.844,0.000
1742814745.794,-967.773,-997.559,-549.805,-968.262,0.000
1742814745.798,-977.051,-990.723,-645.508,-961.914,0.000
1742814745.802,-992.188,-996.094,-504.395,-988.281,0.000
1742814745.806,-993.652,-1000.000,-353.516,-993.164,0.000
1742814745.809,-977.051,-987.305,-390.625,-969.238,0.000
1742814745.813,-975.586,-985.352,-528.320,-972.168,0.000
1742814745.817,-973.633,-982.422,-656.738,-970.703,0.000
1742814745.821,-972.168,-974.609,-596.680,-958.984,0.000
1742814745.825,-975.098,-970.215,-387.207,-958.008,0.000
1742814745.829,-971.680,-973.145,-326.660,-965.332,0.000
1742814745.833,-982.910,-979.492,-500.488,-977.539,0.000
1742814745.837,-991.699,-977.539,-676.758,-980.469,0.000
1742814745.841,-990.723,-979.980,-620.117,-964.844,0.000
1742814745.845,-981.934,-979.492,-291.992,-971.680,0.000
1742814745.849,-972.168,-976.562,-174.805,-968.262,0.000
1742814745.852,-967.773,-975.586,-486.328,-949.219,0.000
1742814745.856,-972.168,-975.098,-669.434,-961.426,0.000
1742814745.860,-978.027,-981.445,-596.680,-968.750,0.000
1742814745.864,-980.469,-986.328,-422.852,-964.844,0.000
1742814745.868,-973.145,-982.910,-343.750,-957.031,0.000
1742814745.872,-962.891,-976.562,-462.891,-961.914,0.000
1742814745.876,-965.820,-975.586,-628.418,-958.496,0.000
1742814745.880,-968.262,-975.586,-633.301,-947.754,0.000
1742814745.884,-955.078,-970.215,-466.797,-945.312,0.000
1742814745.888,-948.730,-970.703,-313.965,-944.336,0.000
1742814745.892,-957.031,-975.098,-389.160,-957.520,0.000
1742814745.895,-952.637,-973.633,-599.121,-966.797,0.000
1742814745.899,-944.824,-971.191,-636.230,-955.078,0.000
1742814745.903,-956.055,-971.680,-449.219,-942.871,0.000
1742814745.907,-958.984,-972.656,-258.789,-960.938,0.000
1742814745.911,-951.660,-973.633,-398.926,-966.309,0.000
1742814745.915,-968.750,-975.098,-641.602,-964.355,0.000
1742814745.919,-980.469,-979.004,-637.695,-973.145,0.000
1742814745.923,-981.934,-982.422,-470.215,-970.215,0.000
1742814745.927,-976.562,-980.957,-349.121,-972.168,0.000
1742814745.931,-974.609,-986.816,-395.508,-977.051,0.000
1742814745.934,-977.051,-982.422,-575.195,-981.445,0.000
1742814745.938,-981.934,-979.004,-635.254,-980.469,0.000
1742814745.942,-989.258,-981.445,-515.137,-979.004,0.000
1742814745.946,-993.652,-983.887,-372.559,-982.910,0.000
1742814745.950,-989.746,-982.422,-337.402,-986.816,0.000
1742814745.954,-991.211,-977.539,-506.836,-1000.000,0.000
1742814745.958,-998.047,-973.633,-698.242,-995.605,0.000
1742814745.962,-1000.000,-968.262,-556.641,-985.840,0.000
1742814745.966,-998.535,-965.332,-329.590,-994.629,0.000
1742814745.970,-993.164,-964.844,-354.492,-998.535,0.000
1742814745.974,-991.699,-970.215,-557.617,-998.047,0.000
1742814745.977,-995.117,-971.191,-665.039,-997.070,0.000
1742814745.981,-1000.000,-974.121,-568.359,-998.535,0.000
1742814745.985,-998.535,-980.469,-343.262,-990.234,0.000
1742814745.989,-984.375,-979.492,-299.316,-972.656,0.000
1742814745.993,-979.004,-976.074,-483.887,-973.633,0.000
1742814745.997,-984.375,-974.609,-641.113,-981.934,0.000
1742814746.001,-973.145,-968.262,-604.004,-962.891,0.000
1742814746.005,-949.707,-959.961,-417.480,-935.547,0.000
1742814746.009,-935.547,-970.215,-301.270,-930.176,0.000
1742814746.013,-938.965,-974.609,-434.570,-948.242,0.000
1742814746.017,-937.988,-967.773,-651.855,-949.219,0.000
1742814746.020,-936.523,-967.773,-609.375,-934.570,0.000
1742814746.024,-939.941,-971.191,-423.340,-930.176,0.000
1742814746.028,-937.988,-976.074,-309.082,-932.129,0.000
1742814746.032,-937.012,-966.797,-430.176,-936.035,0.000
1742814746.036,-937.012,-956.543,-627.930,-937.988,0.000
1742814746.040,-942.871,-958.984,-572.266,-950.684,0.000
1742814746.044,-946.777,-969.238,-388.672,-958.496,0.000
1742814746.048,-942.383,-973.633,-362.793,-954.102,0.000
1742814746.052,-937.988,-971.191,-445.801,-950.684,0.000
1742814746.056,-939.453,-969.727,-606.445,-933.105,0.000
1742814746.060,-947.266,-967.285,-661.621,-933.105,0.000
1742814746.063,-951.660,-964.844,-500.488,-932.129,0.000
1742814746.067,-952.148,-964.355,-297.363,-929.688,0.000
1742814746.071,-956.543,-968.262,-356.445,-951.660,0.000
1742814746.075,-963.379,-963.867,-605.957,-963.867,0.000
1742814746.079,-973.145,-966.309,-654.297,-964.355,0.000
1742814746.083,-977.539,-976.074,-484.863,-962.402,0.000
1742814746.087,-972.656,-974.609,-198.730,-982.422,0.000
1742814746.091,-972.168,-972.656,-287.109,-990.723,0.000
1742814746.095,-976.074,-967.285,-625.000,-985.352,0.000
1742814746.098,-980.469,-959.961,-644.531,-985.352,0.000
1742814746.102,-981.445,-963.867,-491.211,-967.773,0.000
1742814746.106,-979.004,-970.215,-365.723,-961.914,0.000
1742814746.110,-972.168,-973.633,-389.160,-974.609,0.000
1742814746.114,-965.820,-979.492,-553.711,-996.582,0.000
1742814746.118,-958.008,-976.074,-658.691,-987.305,0.000
1742814746.122,-955.566,-973.145,-557.129,-969.727,0.000
1742814746.126,-950.195,-977.539,-301.270,-969.238,0.000
1742814746.130,-937.988,-979.492,-235.352,-968.750,0.000
1742814746.134,-937.988,-971.680,-492.188,-957.520,0.000
1742814746.138,-948.730,-959.473,-685.547,-944.824,0.000
1742814746.141,-963.379,-957.520,-598.633,-932.617,0.000
1742814746.145,-963.867,-968.262,-274.414,-939.941,0.000
1742814746.149,-947.266,-972.656,-224.121,-952.637,0.000
1742814746.153,-944.336,-971.191,-536.621,-939.453,0.000
1742814746.157,-956.055,-971.191,-653.809,-940.430,0.000
1742814746.161,-962.402,-970.703,-578.613,-939.941,0.000
1742814746.165,-958.496,-969.727,-404.785,-942.871,0.000
1742814746.169,-957.031,-969.238,-325.684,-953.613,0.000
1742814746.173,-963.867,-971.191,-463.379,-948.730,0.000
1742814746.177,-969.238,-968.262,-604.492,-956.543,0.000
1742814746.181,-977.051,-969.238,-587.402,-969.238,0.000
1742814746.184,-981.445,-975.586,-437.988,-962.402,0.000
1742814746.188,-976.562,-979.492,-269.531,-954.102,0.000
1742814746.192,-978.027,-981.445,-383.301,-958.496,0.000
1742814746.196,-988.770,-984.863,-662.109,-979.004,0.000
1742814746.200,-994.629,-983.398,-650.391,-978.516,0.000
1742814746.204,-990.234,-978.027,-391.113,-964.844,0.000
1742814746.208,-979.004,-980.957,-284.668,-968.750,0.000
1742814746.212,-969.727,-976.562,-460.449,-972.168,0.000
1742814746.216,-975.586,-973.145,-641.602,-978.516,0.000
1742814746.220,-981.934,-978.516,-607.910,-983.398,0.000
1742814746.223,-987.305,-982.910,-438.965,-979.980,0.000
1742814746.227,-977.051,-978.027,-355.957,-963.867,0.000
1742814746.231,-959.473,-968.750,-422.852,-950.195,0.000
1742814746.235,-959.473,-963.379,-586.914,-964.844,0.000
1742814746.239,-972.168,-971.191,-652.344,-982.422,0.000
1742814746.243,-970.703,-979.980,-503.418,-960.449,0.000
1742814746.247,-955.566,-978.516,-284.668,-941.895,0.000
1742814746.251,-948.730,-980.957,-343.750,-937.988,0.000
1742814746.255,-950.684,-983.398,-600.586,-950.684,0.000
1742814746.259,-947.266,-983.398,-676.758,-950.684,0.000
1742814746.263,-941.406,-978.027,-519.043,-929.688,0.000
1742814746.266,-944.824,-975.586,-259.766,-927.246,0.000
1742814746.270,-939.453,-974.609,-278.809,-937.012,0.000
1742814746.274,-944.336,-969.727,-563.477,-941.895,0.000
1742814746.278,-956.543,-968.262,-646.484,-949.219,0.000
1742814746.282,-957.520,-972.168,-495.605,-970.215,0.000
1742814746.286,-956.055,-977.051,-356.934,-975.586,0.000
1742814746.290,-952.148,-975.586,-367.676,-956.543,0.000
1742814746.294,-959.473,-975.586,-511.719,-957.520,0.000
1742814746.298,-968.262,-979.004,-639.648,-967.773,0.000
1742814746.302,-965.820,-981.445,-570.312,-958.496,0.000
1742814746.306,-965.332,-977.051,-355.469,-958.008,0.000
1742814746.309,-962.402,-972.656,-334.473,-961.914,0.000
1742814746.313,-960.938,-971.191,-479.004,-959.473,0.000
1742814746.317,-957.520,-965.820,-617.188,-960.449,0.000
1742814746.321,-959.961,-967.285,-623.535,-942.383,0.000
1742814746.325,-956.055,-974.121,-298.340,-951.172,0.000
1742814746.329,-945.312,-977.051,-126.465,-972.656,0.000
1742814746.333,-951.172,-977.051,-465.332,-964.355,0.000
1742814746.337,-964.355,-974.609,-654.297,-959.473,0.000
1742814746.341,-971.680,-972.656,-581.055,-958.984,0.000
1742814746.345,-973.633,-974.609,-423.340,-957.520,0.000
1742814746.349,-971.191,-979.004,-328.613,-954.102,0.000
1742814746.352,-963.379,-981.934,-447.266,-950.684,0.000
1742814746.356,-958.008,-983.398,-612.793,-938.965,0.000
1742814746.360,-954.590,-985.352,-601.562,-929.199,0.000
1742814746.364,-948.730,-983.398,-431.641,-925.781,0.000
1742814746.368,-938.477,-979.980,-237.793,-933.594,0.000
1742814746.372,-940.430,-983.398,-323.730,-969.238,0.000
1742814746.376,-942.383,-974.609,-626.953,-974.121,0.000
1742814746.380,-943.359,-969.727,-666.504,-956.543,0.000
1742814746.384,-945.801,-977.539,-444.336,-951.660,0.000
