timestamps,TP9,AF7,AF8,TP10,Right AUX
1742814673.921,-702.148,-731.445,-44.434,-700.195,0.000
1742814673.925,-709.961,-724.121,-539.551,-701.660,0.000
1742814673.929,-706.543,-725.098,-371.094,-705.566,0.000
1742814673.933,-692.383,-727.539,232.910,-693.359,0.000
1742814673.937,-690.430,-733.398,382.812,-689.941,0.000
1742814673.941,-698.730,-740.723,-13.672,-704.102,0.000
1742814673.944,-700.684,-730.469,-556.152,-717.773,0.000
1742814673.948,-696.777,-725.098,-375.488,-705.566,0.000
1742814673.952,-689.453,-734.375,282.227,-686.523,0.000
1742814673.956,-690.918,-736.816,374.023,-695.801,0.000
1742814673.960,-699.707,-734.863,-15.625,-701.660,0.000
1742814673.964,-709.473,-729.980,-493.164,-710.938,0.000
1742814673.968,-718.262,-729.980,-436.523,-710.938,0.000
1742814673.972,-717.285,-736.816,114.746,-700.684,0.000
1742814673.976,-717.773,-738.281,365.234,-718.262,0.000
1742814673.980,-723.633,-738.770,134.766,-735.840,0.000
1742814673.984,-723.145,-738.770,-409.180,-739.258,0.000
1742814673.987,-719.727,-738.281,-473.145,-730.957,0.000
1742814673.991,-719.727,-744.141,97.168,-713.867,0.000
1742814673.995,-716.309,-750.488,422.363,-696.289,0.000
1742814673.999,-714.844,-742.188,208.008,-693.848,0.000
1742814674.003,-708.496,-729.492,-363.281,-708.008,0.000
1742814674.007,-705.566,-727.539,-488.770,-702.637,0.000
1742814674.011,-707.520,-729.004,27.832,-694.824,0.000
1742814674.015,-699.219,-730.469,397.949,-698.242,0.000
1742814674.019,-691.406,-727.051,224.609,-695.312,0.000
1742814674.023,-694.824,-732.422,-327.637,-704.590,0.000
1742814674.027,-696.777,-729.492,-550.781,-703.613,0.000
1742814674.030,-689.941,-717.285,-100.586,-687.500,0.000
1742814674.034,-691.406,-726.562,373.047,-686.035,0.000
1742814674.038,-694.824,-734.375,323.730,-689.453,0.000
1742814674.042,-705.078,-728.516,-73.242,-685.059,0.000
1742814674.046,-713.379,-721.191,-510.254,-710.938,0.000
1742814674.050,-702.637,-724.609,-234.375,-715.820,0.000
1742814674.054,-693.848,-735.840,317.871,-693.359,0.000
1742814674.058,-690.430,-742.188,326.660,-698.242,0.000
1742814674.062,-690.918,-739.258,-128.418,-701.660,0.000
1742814674.066,-690.430,-728.027,-515.625,-699.707,0.000
1742814674.069,-685.059,-725.586,-226.074,-702.637,0.000
1742814674.073,-683.105,-743.652,294.922,-702.637,0.000
1742814674.077,-687.988,-740.234,346.680,-706.543,0.000
1742814674.081,-700.684,-726.074,-65.430,-734.863,0.000
1742814674.085,-707.520,-725.586,-486.816,-740.234,0.000
1742814674.089,-705.078,-727.051,-266.602,-723.145,0.000
1742814674.093,-700.684,-731.445,248.535,-718.262,0.000
1742814674.097,-704.102,-744.629,358.398,-720.215,0.000
1742814674.101,-708.496,-740.234,6.348,-728.516,0.000
1742814674.105,-707.520,-723.145,-524.902,-722.656,0.000
1742814674.109,-708.496,-723.633,-408.203,-715.332,0.000
1742814674.112,-697.754,-728.027,201.172,-709.961,0.000
1742814674.116,-689.453,-733.398,407.715,-697.754,0.000
1742814674.120,-694.824,-736.328,42.969,-697.754,0.000
1742814674.124,-709.473,-738.770,-520.508,-715.332,0.000
1742814674.128,-721.191,-747.070,-438.965,-720.703,0.000
1742814674.132,-718.750,-745.117,203.613,-690.430,0.000
1742814674.136,-706.543,-742.188,400.391,-699.219,0.000
1742814674.140,-699.219,-740.234,15.137,-711.426,0.000
1742814674.144,-698.242,-733.887,-476.562,-697.754,0.000
1742814674.148,-699.219,-731.445,-514.648,-701.660,0.000
1742814674.151,-696.289,-735.352,-32.227,-694.824,0.000
1742814674.155,-686.035,-746.094,365.234,-682.129,0.000
1742814674.159,-685.059,-748.047,167.969,-693.848,0.000
1742814674.163,-703.613,-737.305,-415.039,-722.656,0.000
1742814674.167,-711.914,-734.863,-582.031,-729.004,0.000
1742814674.171,-706.055,-739.746,-94.238,-713.379,0.000
1742814674.175,-704.590,-747.559,374.023,-705.566,0.000
1742814674.179,-707.031,-748.047,227.051,-717.773,0.000
1742814674.183,-720.215,-742.188,-388.672,-741.211,0.000
1742814674.187,-733.398,-745.605,-610.840,-741.211,0.000
1742814674.191,-726.074,-754.883,-124.023,-717.285,0.000
1742814674.194,-714.844,-753.906,345.703,-705.566,0.000
1742814674.198,-717.285,-754.395,220.703,-721.680,0.000
1742814674.202,-723.145,-751.465,-354.004,-741.699,0.000
1742814674.206,-732.910,-748.047,-579.102,-748.535,0.000
1742814674.210,-729.492,-737.793,-246.582,-744.141,0.000
1742814674.214,-723.633,-731.934,242.188,-731.934,0.000
1742814674.218,-726.074,-742.676,286.621,-742.188,0.000
1742814674.222,-739.258,-752.930,-173.828,-752.930,0.000
1742814674.226,-743.652,-752.441,-588.867,-751.953,0.000
1742814674.230,-731.934,-750.977,-351.562,-745.605,0.000
1742814674.234,-722.656,-756.836,259.277,-724.609,0.000
1742814674.237,-718.750,-753.418,389.160,-697.754,0.000
1742814674.241,-722.656,-744.629,-145.996,-711.426,0.000
1742814674.245,-715.332,-736.816,-604.492,-717.285,0.000
1742814674.249,0.000,-732.422,-335.449,-699.707,0.000
1742814674.253,0.000,-742.188,228.516,-695.801,0.000
1742814674.257,0.000,-745.605,342.773,-708.008,0.000
1742814674.261,0.000,-743.164,-50.781,-714.844,0.000
1742814674.265,0.000,-744.629,-533.203,-712.402,0.000
1742814674.269,0.000,-749.023,-391.602,-710.938,0.000
1742814674.273,0.000,-745.605,195.801,-699.707,0.000
1742814674.277,0.000,-740.234,362.305,-693.359,0.000
1742814674.280,0.000,-742.188,29.297,-687.012,0.000
1742814674.284,0.000,-739.746,-505.371,-699.707,0.000
1742814674.288,0.000,-738.281,-483.887,-715.820,0.000
1742814674.292,0.000,-745.605,93.262,-703.125,0.000
1742814674.296,-709.473,-759.277,374.512,-701.172,0.000
1742814674.300,-710.938,-761.719,14.160,-723.145,0.000
1742814674.304,-706.543,-750.000,-535.645,-741.211,0.000
1742814674.308,-702.148,-744.141,-531.738,-746.582,0.000
1742814674.312,-696.289,-745.117,6.836,-726.074,0.000
1742814674.316,-696.289,-749.023,369.141,-714.844,0.000
1742814674.319,-689.453,-748.535,123.047,-737.793,0.000
1742814674.323,-680.176,-743.164,-429.199,-748.047,0.000
1742814674.327,-687.012,-745.117,-512.207,-724.121,0.000
1742814674.331,-690.430,-748.047,-122.559,-721.680,0.000
1742814674.335,-693.359,-749.512,294.434,-725.098,0.000
1742814674.339,-701.172,-753.906,175.781,-728.516,0.000
1742814674.343,-729.492,-756.836,-389.648,-744.629,0.000
1742814674.347,-740.723,-753.906,-591.797,-743.164,0.000
1742814674.351,-732.910,-744.141,-222.168,-727.051,0.000
1742814674.355,-711.914,-742.188,291.504,-712.891,0.000
1742814674.359,-710.938,-749.512,209.961,-715.332,0.000
1742814674.362,-719.238,-749.023,-381.348,-721.191,0.000
1742814674.366,-719.727,-747.070,-625.488,-734.863,0.000
1742814674.370,-717.773,-751.953,-275.879,-724.609,0.000
1742814674.374,-708.496,-752.930,269.531,-700.684,0.000
1742814674.378,-697.754,-748.535,225.586,-719.727,0.000
1742814674.382,-703.125,-743.652,-375.000,-730.957,0.000
1742814674.386,-711.426,-736.816,-644.531,-724.121,0.000
1742814674.390,-717.285,-732.910,-355.957,-727.539,0.000
1742814674.394,-718.262,-738.281,174.805,-719.238,0.000
1742814674.398,-726.562,-748.535,261.719,-721.680,0.000
1742814674.401,-740.723,-757.812,-188.477,-739.258,0.000
1742814674.405,-749.512,-756.836,-636.230,-751.953,0.000
1742814674.409,-744.141,-750.977,-419.434,-744.141,0.000
1742814674.413,-727.051,-741.211,194.336,-729.980,0.000
1742814674.417,-721.191,-738.281,364.258,-716.797,0.000
1742814674.421,-725.586,-734.863,-171.387,-725.586,0.000
1742814674.425,-723.633,-720.215,-662.598,-731.445,0.000
1742814674.429,-722.656,-718.750,-488.281,-718.262,0.000
1742814674.433,-726.562,-723.633,37.598,-713.379,0.000
1742814674.437,-721.680,-723.633,301.270,-718.750,0.000
1742814674.441,-719.727,-723.633,-69.336,-718.262,0.000
1742814674.444,-729.492,-729.492,-587.891,-728.027,0.000
1742814674.448,-718.262,-727.539,-562.500,-720.703,0.000
1742814674.452,-696.777,-724.609,-80.078,-696.289,0.000
1742814674.456,-691.895,-730.957,287.598,-680.664,0.000
1742814674.460,-699.219,-740.723,-29.297,-687.500,0.000
1742814674.464,-710.449,-747.559,-585.449,-706.543,0.000
1742814674.468,-697.266,-735.840,-645.996,-716.309,0.000
1742814674.472,-680.176,-733.398,-200.684,-690.918,0.000
1742814674.476,-681.641,-743.652,262.207,-673.340,0.000
1742814674.480,-692.871,-745.117,-25.391,-695.312,0.000
1742814674.484,-706.543,-742.676,-605.957,-719.727,0.000
1742814674.487,-712.402,-731.934,-656.250,-717.773,0.000
1742814674.491,-713.867,-733.887,-259.766,-706.055,0.000
1742814674.495,-701.172,-736.328,218.262,-708.496,0.000
1742814674.499,-697.754,-735.840,19.043,-717.773,0.000
1742814674.503,-712.402,-741.211,-551.758,-728.027,0.000
1742814674.507,-713.867,-738.281,-613.770,-717.285,0.000
1742814674.511,-705.078,-733.887,-308.594,-718.262,0.000
1742814674.515,-709.473,-744.141,176.758,-724.609,0.000
1742814674.519,-718.262,-749.512,109.863,-730.469,0.000
1742814674.523,-727.539,-741.699,-516.602,-757.324,0.000
1742814674.526,-736.328,-736.816,-714.844,-765.625,0.000
1742814674.530,-732.910,-733.887,-359.375,-742.188,0.000
1742814674.534,-720.215,-736.328,176.758,-734.375,0.000
1742814674.538,-711.426,-739.258,127.441,-733.887,0.000
1742814674.542,-713.379,-734.375,-491.699,-727.539,0.000
1742814674.546,-715.332,-737.793,-727.051,-740.723,0.000
1742814674.550,-720.215,-749.023,-328.613,-732.422,0.000
1742814674.554,-719.727,-753.906,192.383,-718.262,0.000
1742814674.558,-706.055,-744.629,160.645,-718.262,0.000
1742814674.562,-711.914,-738.770,-421.387,-729.492,0.000
1742814674.566,-723.633,-734.375,-688.965,-731.445,0.000
1742814674.569,-719.238,-731.445,-485.352,-726.562,0.000
1742814674.573,-707.031,-735.352,7.324,-715.820,0.000
1742814674.577,-703.613,-739.746,189.941,-713.379,0.000
1742814674.581,-708.984,-739.746,-287.598,-719.727,0.000
1742814674.585,-710.938,-738.770,-686.035,-729.492,0.000
1742814674.589,-702.637,-734.863,-582.520,-720.703,0.000
1742814674.593,-701.172,-742.676,-70.312,-697.266,0.000
1742814674.597,-703.613,-746.094,264.160,-688.477,0.000
1742814674.601,-697.754,-734.863,-211.914,-708.984,0.000
1742814674.605,-700.195,-727.539,-708.984,-724.121,0.000
1742814674.608,-696.289,-730.957,-587.891,-709.961,0.000
1742814674.612,-696.777,-745.605,-24.902,-690.430,0.000
1742814674.616,-698.730,-750.488,230.957,-698.242,0.000
1742814674.620,-699.219,-745.605,-226.074,-717.285,0.000
1742814674.624,-707.520,-741.211,-637.207,-721.191,0.000
1742814674.628,-708.984,-736.328,-601.562,-714.844,0.000
1742814674.632,-700.684,-734.863,-233.887,-716.797,0.000
1742814674.636,-695.312,-733.887,199.707,-710.938,0.000
1742814674.640,-698.242,-729.004,-63.965,-715.332,0.000
1742814674.644,-706.543,-722.168,-607.422,-729.004,0.000
1742814674.648,-715.332,-726.562,-655.762,-734.863,0.000
1742814674.651,-710.449,-730.469,-310.059,-719.238,0.000
1742814674.655,-704.590,-733.398,201.172,-698.730,0.000
1742814674.659,-704.102,-739.746,-12.207,-697.754,0.000
1742814674.663,-706.543,-743.164,-608.887,-714.844,0.000
1742814674.667,-711.426,-747.559,-689.453,-714.844,0.000
1742814674.671,0.000,-751.953,-312.500,-698.730,0.000
1742814674.675,0.000,-749.023,184.570,-703.125,0.000
1742814674.679,0.000,-752.930,17.090,-712.402,0.000
1742814674.683,0.000,-749.512,-562.012,-707.520,0.000
1742814674.687,0.000,-743.164,-701.172,-713.867,0.000
1742814674.691,0.000,-755.371,-370.605,-729.980,0.000
1742814674.694,0.000,-763.672,171.387,-722.168,0.000
1742814674.698,0.000,-759.277,125.977,-715.332,0.000
1742814674.702,0.000,-760.742,-436.035,-720.703,0.000
1742814674.706,0.000,-751.953,-709.473,-737.793,0.000
1742814674.710,0.000,-743.164,-488.770,-734.375,0.000
1742814674.714,0.000,-748.047,49.316,-704.102,0.000
1742814674.718,-706.055,-750.000,165.527,-708.008,0.000
1742814674.722,-708.496,-739.746,-423.828,-714.355,0.000
1742814674.726,-709.473,-727.539,-726.562,-712.891,0.000
1742814674.730,-715.332,-728.027,-493.652,-712.402,0.000
1742814674.734,-721.191,-736.816,-0.977,-725.586,0.000
1742814674.737,-720.215,-740.234,215.820,-723.145,0.000
1742814674.741,-723.633,-738.281,-328.125,-728.516,0.000
1742814674.745,-731.934,-736.328,-681.641,-745.605,0.000
1742814674.749,-728.516,-739.746,-528.320,-727.539,0.000
1742814674.753,-712.402,-737.793,-86.914,-718.262,0.000
1742814674.757,-687.012,-730.957,238.770,-709.961,0.000
1742814674.761,-686.523,-731.934,-153.320,-714.355,0.000
1742814674.765,-691.895,-731.934,-661.133,-729.004,0.000
1742814674.769,-687.500,-729.980,-603.516,-720.703,0.000
1742814674.773,-676.270,-729.980,-105.957,-705.566,0.000
1742814674.776,-674.316,-738.770,287.598,-681.641,0.000
1742814674.780,-688.477,-749.512,-94.727,-689.453,0.000
1742814674.784,-711.426,-746.094,-618.164,-711.914,0.000
1742814674.788,-723.633,-740.723,-567.871,-706.543,0.000
1742814674.792,-712.891,-739.746,-84.473,-699.707,0.000
1742814674.796,-700.195,-742.676,267.578,-709.473,0.000
1742814674.800,-702.148,-749.023,-29.297,-723.633,0.000
1742814674.804,-713.379,-750.488,-563.965,-728.516,0.000
1742814674.808,-720.703,-745.605,-621.582,-721.680,0.000
1742814674.812,-704.102,-737.793,-231.934,-709.961,0.000
1742814674.816,-694.824,-745.605,252.441,-695.312,0.000
1742814674.819,-712.891,-757.324,30.273,-712.402,0.000
1742814674.823,-722.656,-751.465,-563.477,-737.305,0.000
1742814674.827,-720.703,-750.488,-663.086,-737.793,0.000
1742814674.831,-717.773,-755.371,-248.535,-724.609,0.000
1742814674.835,-724.609,-761.719,278.809,-711.426,0.000
1742814674.839,-730.957,-753.906,154.785,-721.191,0.000
1742814674.843,-737.793,-741.699,-482.910,-745.117,0.000
1742814674.847,-746.582,-742.676,-675.781,-750.488,0.000
1742814674.851,-745.117,-743.164,-284.180,-738.281,0.000
1742814674.855,-741.699,-743.164,240.723,-724.121,0.000
1742814674.858,-740.234,-750.000,186.523,-727.539,0.000
1742814674.862,-739.746,-752.930,-422.852,-730.957,0.000
1742814674.866,-731.445,-743.164,-651.367,-720.215,0.000
1742814674.870,-713.379,-729.980,-352.539,-699.707,0.000
1742814674.874,-703.613,-740.234,182.617,-690.430,0.000
1742814674.878,-695.312,-750.488,279.297,-689.453,0.000
1742814674.882,-690.918,-748.047,-203.613,-691.895,0.000
1742814674.886,-686.035,-737.793,-628.418,-694.336,0.000
1742814674.890,-676.758,-738.281,-419.434,-690.430,0.000
1742814674.894,-676.270,-751.953,164.551,-682.129,0.000
1742814674.898,-669.922,-752.441,294.434,-668.945,0.000
1742814674.901,-668.945,-750.488,-183.594,-672.363,0.000
1742814674.905,-677.246,-757.812,-625.488,-691.406,0.000
1742814674.909,-674.316,-760.254,-359.863,-677.246,0.000
1742814674.913,-671.875,-762.207,209.961,-665.039,0.000
1742814674.917,-682.129,-765.625,325.684,-674.316,0.000
1742814674.921,-697.754,-763.184,-88.867,-686.523,0.000
1742814674.925,-715.332,-762.695,-547.852,-691.406,0.000
1742814674.929,-726.074,-763.184,-465.332,-678.223,0.000
1742814674.933,-720.703,-766.113,21.484,-678.223,0.000
1742814674.937,-729.980,-779.785,323.730,-690.430,0.000
1742814674.941,-745.117,-779.785,0.000,-705.566,0.000
1742814674.944,-758.301,-769.531,-554.688,-725.098,0.000
1742814674.948,-775.391,-771.484,-564.453,-744.629,0.000
1742814674.952,-773.438,-767.578,-35.156,-745.117,0.000
1742814674.956,-767.090,-760.254,348.633,-741.699,0.000
1742814674.960,-760.742,-756.348,6.348,-757.324,0.000
1742814674.964,-753.906,-748.047,-560.547,-756.836,0.000
1742814674.968,-746.582,-741.699,-578.613,-752.441,0.000
1742814674.972,-736.328,-750.000,-62.012,-733.398,0.000
1742814674.976,-722.656,-750.488,340.332,-719.727,0.000
1742814674.980,-708.008,-731.445,38.086,-733.398,0.000
1742814674.983,-695.801,-717.285,-507.324,-728.516,0.000
1742814674.987,-686.035,-714.844,-552.734,-688.477,0.000
1742814674.991,-675.781,-719.238,-214.844,-693.359,0.000
1742814674.995,-655.762,-721.680,241.211,-697.754,0.000
1742814674.999,-639.160,-720.215,192.871,-681.641,0.000
1742814675.003,-639.648,-724.609,-412.598,-687.500,0.000
1742814675.007,-639.160,-730.469,-651.367,-698.730,0.000
1742814675.011,-639.160,-732.422,-287.598,-692.871,0.000
1742814675.015,-632.812,-735.840,262.207,-671.875,0.000
1742814675.019,-631.836,-742.676,243.164,-662.598,0.000
1742814675.023,-642.090,-739.258,-382.812,-680.176,0.000
1742814675.026,-655.273,-729.004,-640.137,-687.500,0.000
1742814675.030,-665.527,-734.863,-289.062,-664.062,0.000
1742814675.034,-657.715,-743.164,237.793,-650.879,0.000
1742814675.038,-665.039,-739.258,229.980,-669.922,0.000
1742814675.042,-681.152,-734.375,-324.707,-682.129,0.000
1742814675.046,-692.383,-735.352,-608.887,-695.801,0.000
1742814675.050,-695.312,-732.422,-350.098,-700.684,0.000
1742814675.054,-691.895,-734.863,175.293,-690.918,0.000
1742814675.058,-704.590,-750.000,322.266,-693.848,0.000
1742814675.062,-716.797,-754.395,-88.379,-710.938,0.000
1742814675.066,-727.539,-754.883,-552.246,-721.680,0.000
1742814675.069,-731.445,-755.859,-407.715,-715.332,0.000
1742814675.073,-737.793,-762.207,169.434,-717.285,0.000
1742814675.077,-737.305,-762.207,411.621,-709.473,0.000
1742814675.081,-742.676,-751.465,-72.754,-728.516,0.000
1742814675.085,-757.324,-748.047,-586.426,-750.977,0.000
1742814675.089,-757.812,-746.094,-458.984,-742.188,0.000
1742814675.093,0.000,-746.094,0.000,-732.910,0.000
1742814675.097,0.000,-749.023,0.000,-734.375,0.000
1742814675.101,0.000,-743.652,0.000,-739.746,0.000
1742814675.105,0.000,-727.051,0.000,-733.887,0.000
1742814675.109,0.000,-719.727,0.000,-727.051,0.000
1742814675.112,0.000,-722.168,0.000,-711.914,0.000
1742814675.116,0.000,-724.609,0.000,-712.891,0.000
1742814675.120,0.000,-720.703,0.000,-711.914,0.000
1742814675.124,0.000,-715.332,0.000,-708.496,0.000
1742814675.128,0.000,-709.473,0.000,-730.469,0.000
1742814675.132,0.000,-708.008,0.000,-731.934,0.000
1742814675.136,0.000,-714.844,0.000,-728.516,0.000
1742814675.140,-702.637,-714.355,158.691,-731.445,0.000
1742814675.144,-713.867,-709.961,-429.199,-736.328,0.000
1742814675.148,-719.727,-707.031,-574.707,-741.211,0.000
1742814675.151,-709.961,-705.078,-54.688,-715.332,0.000
1742814675.155,-711.914,-713.867,361.816,-711.426,0.000
1742814675.159,-724.609,-722.168,211.914,-729.492,0.000
1742814675.163,-731.445,-716.309,-313.965,-724.121,0.000
1742814675.167,-731.445,-713.867,-513.672,-709.473,0.000
1742814675.171,-725.098,-712.891,-199.707,-709.473,0.000
1742814675.175,-718.750,-713.379,276.855,-712.891,0.000
1742814675.179,-720.215,-718.750,294.434,-711.914,0.000
1742814675.183,-733.887,-716.309,-242.188,-722.656,0.000
1742814675.187,-746.094,-720.703,-571.289,-730.469,0.000
1742814675.191,-747.070,-732.422,-253.418,-725.098,0.000
1742814675.194,-750.977,-739.258,310.059,-728.516,0.000
1742814675.198,-750.000,-743.652,306.641,-736.328,0.000
1742814675.202,-747.559,-738.770,-261.719,-745.605,0.000
1742814675.206,-755.859,-732.910,-587.891,-757.812,0.000
1742814675.210,-753.906,-739.746,-275.879,-746.582,0.000
1742814675.214,-744.629,-748.535,281.250,-723.145,0.000
1742814675.218,-737.305,-749.023,320.312,-732.910,0.000
1742814675.222,-736.328,-735.352,-132.812,-737.305,0.000
1742814675.226,-732.910,-724.121,-560.059,-727.051,0.000
1742814675.230,-719.238,-719.727,-370.117,-716.309,0.000
1742814675.234,-713.867,-722.168,179.199,-705.566,0.000
1742814675.237,-715.332,-735.352,336.914,-703.613,0.000
1742814675.241,-714.355,-732.910,-24.414,-710.449,0.000
1742814675.245,-719.727,-721.191,-564.453,-725.098,0.000
1742814675.249,-722.168,-725.098,-472.168,-731.445,0.000
1742814675.253,-707.031,-729.004,145.508,-712.402,0.000
1742814675.257,-702.148,-729.004,431.152,-693.359,0.000
1742814675.261,-708.008,-729.492,-2.441,-724.121,0.000
1742814675.265,-720.215,-724.121,-568.359,-766.602,0.000
1742814675.269,-723.633,-720.703,-499.512,-753.906,0.000
1742814675.273,-717.285,-723.145,40.527,-728.516,0.000
1742814675.276,-710.938,-720.703,335.449,-729.980,0.000
1742814675.280,-705.078,-725.098,66.895,-738.281,0.000
1742814675.284,-704.102,-723.145,-448.730,-737.305,0.000
1742814675.288,-701.172,-715.332,-557.129,-723.633,0.000
1742814675.292,-692.383,-718.262,-75.684,-705.078,0.000
1742814675.296,-683.594,-715.820,334.473,-689.453,0.000
1742814675.300,-682.129,-717.285,150.879,-687.988,0.000
1742814675.304,-695.801,-719.238,-410.156,-700.684,0.000
1742814675.308,-696.777,-712.891,-604.492,-699.219,0.000
1742814675.312,-691.895,-722.168,-111.816,-694.336,0.000
1742814675.316,-685.059,-729.492,340.332,-696.289,0.000
1742814675.319,-684.570,-731.934,152.832,-701.172,0.000
1742814675.323,-696.289,-730.469,-428.711,-703.125,0.000
1742814675.327,-699.219,-730.957,0.000,-706.055,0.000
1742814675.331,-702.148,-741.211,0.000,-706.055,0.000
1742814675.335,-692.871,-740.234,0.000,-699.707,0.000
1742814675.339,-686.035,-732.422,0.000,-710.938,0.000
1742814675.343,-701.660,-729.980,0.000,-736.816,0.000
1742814675.347,-698.242,-727.539,0.000,-732.422,0.000
1742814675.351,-686.035,-726.562,0.000,-725.586,0.000
1742814675.355,-680.664,-728.027,0.000,-732.422,0.000
1742814675.359,-685.059,-734.375,0.000,-723.145,0.000
1742814675.362,-691.406,-739.746,0.000,-719.727,0.000
1742814675.366,-693.848,-735.840,0.000,-733.887,0.000
1742814675.370,-694.336,-730.469,0.000,-725.586,0.000
1742814675.374,-689.453,-735.840,219.727,-707.031,0.000
1742814675.378,-705.566,-744.629,295.410,-712.891,0.000
1742814675.382,-721.191,-745.605,-235.840,-731.445,0.000
1742814675.386,-730.469,-745.605,-650.391,-750.488,0.000
1742814675.390,-736.328,-747.070,-420.898,-747.559,0.000
1742814675.394,-727.051,-746.582,183.105,-728.027,0.000
1742814675.398,-723.633,-748.535,306.641,-727.539,0.000
1742814675.401,-730.469,-747.559,-218.750,-744.629,0.000
1742814675.405,-743.652,-747.559,-600.098,-754.883,0.000
1742814675.409,-750.488,-751.465,-481.445,-730.957,0.000
1742814675.413,-740.723,-752.930,-19.043,-720.703,0.000
1742814675.417,-739.746,-755.371,279.785,-724.121,0.000
1742814675.421,-749.023,-759.277,-48.828,-721.191,0.000
1742814675.425,-755.371,-759.766,-570.312,-727.539,0.000
1742814675.429,-756.348,-754.883,-594.238,-733.398,0.000
1742814675.433,-740.234,-750.000,-91.797,-713.379,0.000
1742814675.437,-727.539,-756.348,317.871,-702.148,0.000
1742814675.441,-731.445,-764.648,-3.906,-718.750,0.000
1742814675.444,-728.516,-751.953,-580.566,-725.098,0.000
1742814675.448,-718.262,-741.699,-617.676,-724.121,0.000
1742814675.452,-707.031,-745.605,-115.234,-720.215,0.000
1742814675.456,-703.613,-752.441,278.809,-727.051,0.000
1742814675.460,-699.707,-751.465,-33.203,-731.445,0.000
1742814675.464,-696.777,-748.535,-556.152,-736.328,0.000
1742814675.468,-702.637,-751.465,-571.777,-724.121,0.000
1742814675.472,-697.266,-755.371,-254.883,-732.910,0.000
1742814675.476,-694.336,-757.324,201.660,-739.746,0.000
1742814675.480,-703.125,-749.512,99.121,-734.863,0.000
1742814675.484,-716.309,-746.582,-508.789,-747.559,0.000
1742814675.487,-727.539,-750.977,-673.340,-751.465,0.000
1742814675.491,-725.586,-749.023,-335.449,-743.652,0.000
1742814675.495,-720.703,-747.070,212.891,-729.004,0.000
1742814675.499,-722.656,-750.488,181.152,-723.145,0.000
1742814675.503,-723.633,-743.652,-489.258,-739.258,0.000
1742814675.507,-726.562,-734.375,-726.074,-741.699,0.000
1742814675.511,-728.027,-737.305,-375.488,-731.934,0.000
1742814675.515,-724.609,-745.605,147.949,-725.586,0.000
1742814675.519,-733.887,-743.164,147.949,-732.910,0.000
1742814675.523,-746.094,-735.352,-446.777,-742.676,0.000
1742814675.526,-761.719,-741.699,-696.777,-748.047,0.000
1742814675.530,-762.695,-739.746,-451.172,-751.465,0.000
1742814675.534,-750.488,-743.164,81.543,-732.910,0.000
1742814675.538,-744.141,-745.605,243.652,-724.609,0.000
1742814675.542,-744.629,-739.746,-282.715,-730.957,0.000
1742814675.546,-743.164,-735.352,-688.965,-737.305,0.000
1742814675.550,-733.398,-733.887,-524.902,-735.352,0.000
1742814675.554,-713.867,-734.375,20.996,-717.285,0.000
1742814675.558,-705.566,-736.328,278.320,-695.801,0.000
1742814675.562,-713.867,-742.188,-263.672,-719.727,0.000
1742814675.566,-714.355,-738.770,-678.223,-730.469,0.000
1742814675.569,-706.543,-732.910,-510.254,-712.891,0.000
1742814675.573,-702.637,-741.699,-38.086,-716.309,0.000
1742814675.577,-703.125,-743.164,249.023,-714.355,0.000
1742814675.581,-716.309,-746.582,-114.258,-724.121,0.000
1742814675.585,-729.004,-750.000,-597.168,-735.840,0.000
1742814675.589,-725.586,-744.141,-556.641,-729.980,0.000
1742814675.593,-714.355,-735.352,-98.633,-727.051,0.000
1742814675.597,-712.402,-734.863,287.109,-724.121,0.000
1742814675.601,-719.727,-743.164,-31.738,-738.770,0.000
1742814675.605,-726.074,-738.770,-589.355,-740.234,0.000
1742814675.609,-728.516,-732.422,-624.023,-724.121,0.000
1742814675.612,-729.004,-738.281,-178.223,-721.680,0.000
1742814675.616,-723.633,-744.141,284.668,-724.121,0.000
1742814675.620,-717.773,-738.770,4.395,-722.168,0.000
1742814675.624,-725.098,-734.863,-571.289,-733.887,0.000
1742814675.628,-728.516,-730.469,-620.605,-730.469,0.000
1742814675.632,-713.867,-725.098,-123.535,-713.379,0.000
1742814675.636,-695.801,-726.562,297.852,-711.426,0.000
1742814675.640,-687.988,-722.656,44.922,-709.961,0.000
1742814675.644,-686.523,-716.309,-505.371,-710.449,0.000
1742814675.648,-695.312,-722.656,-646.973,-711.914,0.000
1742814675.651,-708.496,-729.004,-270.508,-700.684,0.000
1742814675.655,-716.797,-730.957,245.605,-689.453,0.000
1742814675.659,-723.633,-732.910,188.477,-690.430,0.000
1742814675.663,-736.816,-733.887,-442.383,-706.543,0.000
1742814675.667,-748.047,-740.234,-695.801,-723.145,0.000
1742814675.671,-735.840,-737.305,-359.375,-708.984,0.000
1742814675.675,-715.332,-733.398,224.609,-687.988,0.000
1742814675.679,-706.055,-735.352,228.027,-698.242,0.000
1742814675.683,-716.797,-731.445,-411.621,-714.355,0.000
1742814675.687,-716.797,-725.586,-683.105,-709.961,0.000
1742814675.691,-702.637,-725.098,-373.047,-697.266,0.000
1742814675.694,-694.336,-722.656,168.457,-699.219,0.000
1742814675.698,-693.359,-719.727,235.352,-703.613,0.000
1742814675.702,-699.219,-718.750,-330.078,-702.637,0.000
1742814675.706,-701.172,-717.285,-630.371,-707.520,0.000
1742814675.710,-697.754,-713.379,-412.109,-704.102,0.000
1742814675.714,-694.336,-716.797,58.105,-704.590,0.000
1742814675.718,-697.266,-721.680,304.688,-709.473,0.000
1742814675.722,-706.055,-726.562,-42.480,-714.355,0.000
1742814675.726,-708.984,-727.539,-594.727,-715.820,0.000
1742814675.730,-708.984,-725.586,-533.691,-712.402,0.000
1742814675.734,-700.195,-736.816,43.457,-705.566,0.000
1742814675.737,-691.406,-741.211,377.441,-693.848,0.000
1742814675.741,-693.848,-730.469,-70.312,-697.754,0.000
1742814675.745,-695.312,-725.098,-630.859,-712.402,0.000
1742814675.749,-697.754,-720.215,-530.762,-716.309,0.000
1742814675.753,-705.078,-723.145,2.441,-705.078,0.000
1742814675.757,-703.613,-734.863,304.688,-708.984,0.000
1742814675.761,-706.055,-733.398,-32.715,-719.238,0.000
1742814675.765,-724.609,-734.375,-544.922,-725.098,0.000
1742814675.769,-725.098,-738.770,-555.176,-727.539,0.000
1742814675.773,-715.332,-736.816,-91.309,-718.262,0.000
1742814675.776,-708.008,-735.352,295.898,-712.402,0.000
1742814675.780,-703.613,-734.863,136.719,-707.031,0.000
1742814675.784,-717.285,-738.770,-421.875,-727.051,0.000
1742814675.788,-718.750,-736.328,-617.188,-739.258,0.000
1742814675.792,-711.426,-734.375,-136.230,-713.867,0.000
1742814675.796,-716.309,-753.418,338.867,-710.938,0.000
1742814675.800,-726.074,-762.207,125.977,-733.887,0.000
1742814675.804,-732.422,-757.324,-489.746,-737.793,0.000
1742814675.808,-734.375,-754.883,-664.551,-732.422,0.000
1742814675.812,-724.609,-754.883,-291.504,-723.145,0.000
1742814675.816,-710.938,-757.812,222.656,-704.590,0.000
1742814675.819,-704.590,-751.953,145.996,-696.289,0.000
1742814675.823,-721.191,-749.023,-461.426,-715.820,0.000
1742814675.827,-733.398,-753.906,-644.043,-724.609,0.000
1742814675.831,-721.191,-751.465,-373.535,-726.074,0.000
1742814675.835,-716.309,-754.395,120.117,-729.492,0.000
1742814675.839,-719.727,-761.719,151.855,-737.305,0.000
1742814675.843,-724.121,-757.324,-442.871,-751.953,0.000
1742814675.847,-721.680,-751.953,-689.453,-744.629,0.000
1742814675.851,-720.215,-753.906,-438.477,-740.234,0.000
1742814675.855,-712.402,-760.742,89.355,-731.934,0.000
1742814675.859,-706.055,-763.184,208.008,-726.562,0.000
1742814675.862,-709.473,-765.137,-351.074,-732.422,0.000
1742814675.866,-711.426,-757.812,-684.570,-728.027,0.000
1742814675.870,-713.379,-754.395,-427.734,-718.750,0.000
1742814675.874,-711.914,-755.371,124.512,-709.961,0.000
1742814675.878,-713.379,-752.441,269.531,-713.379,0.000
1742814675.882,-721.191,-756.836,-258.301,-735.352,0.000
1742814675.886,-724.121,-754.883,-622.559,-733.398,0.000
1742814675.890,-721.680,-753.906,-479.492,-715.820,0.000
1742814675.894,-710.938,-755.859,-31.250,-709.473,0.000
1742814675.898,-698.730,-753.418,287.598,-700.684,0.000
1742814675.902,-704.590,-750.000,-64.941,-704.590,0.000
1742814675.905,-715.332,-742.188,-601.562,-721.680,0.000
1742814675.909,-709.961,-742.188,-542.969,-714.844,0.000
1742814675.913,-708.008,-750.000,3.906,-698.242,0.000
1742814675.917,-709.473,-752.441,350.586,-703.125,0.000
1742814675.921,-709.961,-752.930,-51.758,-715.820,0.000
1742814675.925,-714.355,-750.488,-608.887,-725.098,0.000
1742814675.929,-724.609,-759.277,-565.430,-724.609,0.000
1742814675.933,-730.957,-773.926,18.555,-699.219,0.000
1742814675.937,-722.168,-771.973,334.473,-712.402,0.000
1742814675.941,-728.516,-764.160,11.719,-740.723,0.000
1742814675.944,-734.375,-757.812,-523.438,-747.559,0.000
1742814675.948,-728.516,-748.535,-628.418,-750.488,0.000
1742814675.952,-732.910,-754.883,-244.141,-745.117,0.000
1742814675.956,-725.586,-760.742,260.742,-732.422,0.000
1742814675.960,-722.168,-757.324,142.578,-722.168,0.000
1742814675.964,-729.492,-753.906,-442.871,-725.586,0.000
1742814675.968,-722.656,-745.117,-660.156,-733.398,0.000
1742814675.972,-718.262,-745.605,-292.480,-720.703,0.000
1742814675.976,-722.168,-754.395,227.051,-715.820,0.000
1742814675.980,-724.121,-751.465,141.602,-728.516,0.000
1742814675.984,-726.074,-749.023,-461.426,-734.863,0.000
1742814675.987,-729.492,-750.488,-666.504,-737.793,0.000
1742814675.991,-726.074,-752.930,-273.438,-723.633,0.000
1742814675.995,-712.402,-751.465,240.234,-702.637,0.000
1742814675.999,-703.125,-752.930,221.191,-704.102,0.000
1742814676.003,-709.473,-750.977,-317.871,-713.379,0.000
1742814676.007,-721.680,-750.977,-561.523,-714.844,0.000
1742814676.011,-715.332,-750.488,-316.406,-713.867,0.000
1742814676.015,-714.355,-751.465,181.641,-719.238,0.000
1742814676.019,-715.820,-753.418,297.852,-730.469,0.000
1742814676.023,-714.355,-751.465,-187.988,-734.375,0.000
1742814676.026,-715.332,-747.070,-622.070,-728.027,0.000
1742814676.030,-721.680,-749.512,-388.672,-729.492,0.000
1742814676.034,-727.539,-760.254,210.938,-728.027,0.000
1742814676.038,-720.703,-760.742,333.008,-727.539,0.000
1742814676.042,-725.586,-749.512,-112.793,-737.305,0.000
1742814676.046,-740.723,-743.164,-588.379,-741.699,0.000
1742814676.050,-752.930,-757.812,-392.090,-744.141,0.000
1742814676.054,-747.070,-769.043,207.520,-751.465,0.000
1742814676.058,-737.305,-769.531,343.262,-752.930,0.000
1742814676.062,-747.070,-774.414,-65.430,-767.578,0.000
1742814676.066,-751.465,-772.461,-528.320,-761.719,0.000
1742814676.069,-746.582,-769.531,-470.703,-747.559,0.000
1742814676.073,-737.305,-770.020,31.738,-747.559,0.000
1742814676.077,-731.445,-770.020,355.469,-741.211,0.000
1742814676.081,-737.793,-767.090,98.633,-738.770,0.000
1742814676.085,-742.676,-765.137,-474.121,-745.605,0.000
1742814676.089,-737.305,-766.113,-566.406,-756.348,0.000
1742814676.093,-731.445,-764.648,-3.418,-742.676,0.000
1742814676.097,-729.004,-770.020,401.855,-715.820,0.000
1742814676.101,-719.727,-766.113,85.449,-725.586,0.000
1742814676.105,-718.262,-755.859,-463.379,-729.492,0.000
1742814676.109,-716.309,-757.324,-530.762,-712.402,0.000
1742814676.112,-708.984,-757.324,6.836,-689.941,0.000
1742814676.116,-706.055,-753.418,354.004,-694.336,0.000
1742814676.120,-707.520,-750.977,114.258,-712.402,0.000
1742814676.124,-717.285,-743.652,-407.227,-715.820,0.000
1742814676.128,-734.375,-741.699,-597.656,-717.773,0.000
1742814676.132,-736.328,-747.070,-251.465,-715.332,0.000
1742814676.136,-724.609,-750.000,271.973,-712.402,0.000
1742814676.140,-727.539,-752.441,241.211,-712.891,0.000
1742814676.144,-732.910,-754.395,-361.328,-727.051,0.000
1742814676.148,-731.934,-751.465,-622.070,-751.465,0.000
1742814676.152,-720.215,-744.629,-279.297,-738.281,0.000
1742814676.155,-712.402,-748.047,287.109,-718.750,0.000
1742814676.159,-716.309,-750.488,324.219,-728.516,0.000
1742814676.163,-726.562,-739.746,-271.973,-745.605,0.000
1742814676.167,-722.168,-730.957,-581.543,-731.934,0.000
1742814676.171,-712.402,-731.934,-246.094,-726.562,0.000
1742814676.175,-703.125,-737.305,263.672,-726.562,0.000
1742814676.179,-702.148,-744.629,323.730,-721.680,0.000
1742814676.183,-711.914,-749.512,-106.445,-729.980,0.000
1742814676.187,-707.031,-743.164,-520.996,-724.121,0.000
1742814676.191,-697.266,-737.793,-274.902,-712.891,0.000
1742814676.194,-699.219,-743.164,276.367,-709.961,0.000
1742814676.198,-686.523,-736.328,372.559,-705.078,0.000
1742814676.202,-686.035,-734.863,104.004,-695.312,0.000
1742814676.206,-693.848,-734.863,-466.797,-700.195,0.000
1742814676.210,-697.266,-737.305,-399.902,-708.008,0.000
1742814676.214,-701.172,-745.605,250.488,-692.871,0.000
1742814676.218,-696.289,-743.652,407.227,-684.570,0.000
1742814676.222,-707.520,-740.723,57.617,-701.172,0.000
1742814676.226,-732.422,-737.793,-495.605,-721.191,0.000
1742814676.230,-744.629,-736.816,-407.715,-720.215,0.000
1742814676.234,-733.398,-742.188,203.613,-717.773,0.000
1742814676.237,-723.633,-746.582,395.508,-711.914,0.000
1742814676.241,-723.633,-747.070,94.238,-713.379,0.000
1742814676.245,-723.145,-748.535,-421.387,-725.098,0.000
1742814676.249,-726.074,-750.488,-488.281,-722.656,0.000
1742814676.253,-723.145,-749.512,20.020,-719.727,0.000
1742814676.257,-721.191,-753.906,360.840,-723.145,0.000
1742814676.261,-717.773,-754.883,129.395,-715.820,0.000
1742814676.265,0.000,-751.953,-433.105,-723.145,0.000
1742814676.269,0.000,-742.188,-572.266,-727.051,0.000
1742814676.273,0.000,-737.793,-62.500,-712.402,0.000
1742814676.277,0.000,-741.211,371.094,-714.844,0.000
1742814676.280,0.000,-741.211,168.457,-719.238,0.000
1742814676.284,0.000,-739.258,-386.230,-724.121,0.000
1742814676.288,0.000,-735.840,-538.086,-721.680,0.000
1742814676.292,0.000,-731.445,7.812,-682.617,0.000
1742814676.296,0.000,-734.863,391.113,-675.781,0.000
1742814676.300,0.000,-738.770,205.566,-710.938,0.000
1742814676.304,0.000,-732.422,-319.336,-732.910,0.000
1742814676.308,0.000,-731.445,-575.195,-734.375,0.000
1742814676.312,-730.469,-736.816,-196.777,-727.051,0.000
1742814676.316,-719.727,-729.980,321.777,-714.355,0.000
1742814676.319,-709.961,-723.633,314.453,-715.820,0.000
1742814676.323,-709.473,-726.562,-171.875,-732.910,0.000
1742814676.327,-714.844,-731.445,-557.129,-740.234,0.000
1742814676.331,-713.867,-740.723,-286.133,-733.398,0.000
1742814676.335,-718.262,-751.465,303.223,-707.031,0.000
1742814676.339,-715.820,-751.953,398.926,-704.590,0.000
1742814676.343,-713.379,-742.676,-133.301,-729.492,0.000
1742814676.347,-721.191,-737.305,-566.406,-730.469,0.000
1742814676.351,-726.562,-735.352,-299.805,-731.934,0.000
1742814676.355,-729.004,-737.305,243.164,-739.746,0.000
1742814676.359,-729.004,-744.629,335.449,-744.629,0.000
1742814676.362,-725.098,-745.605,-65.918,-735.352,0.000
1742814676.366,-724.121,-745.117,-521.973,-727.051,0.000
1742814676.370,-721.680,-744.629,-388.184,-732.910,0.000
1742814676.374,-709.473,-744.629,184.082,-722.656,0.000
1742814676.378,-701.660,-751.953,390.625,-712.891,0.000
1742814676.382,-705.566,-750.000,119.629,-723.633,0.000
1742814676.386,-707.031,-731.445,-470.703,-724.121,0.000
1742814676.390,-703.125,-722.168,-502.441,-709.473,0.000
1742814676.394,-701.172,-729.492,56.641,-708.984,0.000
1742814676.398,-699.219,-739.746,334.961,-712.402,0.000
1742814676.401,-705.566,-745.605,-34.668,-720.215,0.000
1742814676.405,-720.215,-747.559,-563.477,-727.051,0.000
1742814676.409,-717.285,-747.559,-548.340,-714.844,0.000
1742814676.413,-706.055,-748.535,-69.824,-708.008,0.000
1742814676.417,-706.543,-745.605,299.805,-708.496,0.000
1742814676.421,-708.008,-741.211,-46.387,-717.773,0.000
1742814676.425,-710.938,-732.910,-552.734,-712.402,0.000
1742814676.429,-712.402,-727.051,-619.141,-710.449,0.000
1742814676.433,-716.797,-736.816,-295.898,-728.027,0.000
1742814676.437,-712.402,-744.141,181.152,-724.121,0.000
1742814676.441,-703.125,-746.582,-43.945,-721.191,0.000
1742814676.444,-699.707,-743.652,-631.836,-728.516,0.000
1742814676.448,-703.613,-737.793,-748.535,-736.816,0.000
1742814676.452,-707.031,-739.258,-464.844,-729.980,0.000
1742814676.456,-699.707,-738.281,24.902,-710.449,0.000
1742814676.460,-711.914,-734.863,-56.152,-716.797,0.000
1742814676.464,-731.934,-728.516,-635.742,-736.328,0.000
1742814676.468,-749.512,-730.957,-753.906,-726.074,0.000
1742814676.472,-761.719,-738.281,-401.367,-714.355,0.000
1742814676.476,-758.301,-747.070,108.398,-732.910,0.000
1742814676.480,-751.953,-751.465,51.758,-746.094,0.000
1742814676.484,-744.629,-743.652,-527.832,-749.512,0.000
1742814676.487,-753.418,-743.652,-714.844,-753.418,0.000
1742814676.491,-759.277,-757.324,-489.258,-753.418,0.000
1742814676.495,-742.188,-758.789,-6.348,-740.234,0.000
1742814676.499,-741.211,-754.883,180.176,-736.328,0.000
1742814676.503,-746.094,-751.953,-357.910,-735.352,0.000
1742814676.507,-742.676,-750.488,-713.379,-737.793,0.000
1742814676.511,-746.094,-747.070,-501.953,-732.422,0.000
1742814676.515,-732.422,-750.000,20.508,-713.379,0.000
1742814676.519,-723.633,-755.859,243.164,-705.078,0.000
1742814676.523,-723.145,-744.629,-262.695,-720.215,0.000
1742814676.526,-723.633,-737.305,-699.707,-738.770,0.000
1742814676.530,-723.145,-743.652,-446.289,-725.586,0.000
1742814676.534,-715.332,-750.000,157.227,-707.031,0.000
1742814676.538,-707.031,-746.582,291.992,-708.008,0.000
1742814676.542,-709.961,-745.117,-157.227,-720.215,0.000
1742814676.546,-720.703,-750.488,-579.102,-727.051,0.000
1742814676.550,-727.051,-756.836,-532.715,-736.328,0.000
1742814676.554,-728.027,-763.184,-55.176,-737.305,0.000
1742814676.558,-722.168,-761.719,333.008,-721.191,0.000
1742814676.562,-720.215,-750.977,28.320,-727.051,0.000
1742814676.566,-728.516,-746.094,-517.090,-746.094,0.000
1742814676.569,-729.492,-743.652,-551.270,-751.465,0.000
1742814676.573,-732.422,-745.117,-53.711,-731.445,0.000
1742814676.577,-737.305,-756.348,396.973,-707.520,0.000
1742814676.581,-745.117,-763.184,42.480,-734.863,0.000
1742814676.585,-753.418,-762.695,-531.250,-761.719,0.000
1742814676.589,-752.930,-757.812,-561.035,-750.977,0.000
1742814676.593,-748.047,-759.277,-80.078,-745.117,0.000
1742814676.597,-738.770,-757.324,362.305,-740.234,0.000
1742814676.601,-741.211,-757.324,145.996,-739.746,0.000
1742814676.605,-749.023,-758.301,-418.457,-746.582,0.000
1742814676.609,-757.812,-756.348,-606.445,-755.859,0.000
1742814676.612,-755.859,-757.324,-129.395,-739.746,0.000
1742814676.616,-743.652,-753.418,337.891,-738.281,0.000
1742814676.620,-745.605,-756.836,238.770,-750.488,0.000
1742814676.624,-757.324,-763.184,-300.293,-743.164,0.000
1742814676.628,-751.465,-756.348,-641.113,-749.023,0.000
1742814676.632,-731.445,-752.441,-308.594,-729.004,0.000
1742814676.636,-706.055,-748.535,249.023,-694.336,0.000
1742814676.640,-693.848,-745.117,219.727,-697.754,0.000
1742814676.644,-700.684,-747.070,-383.301,-720.215,0.000
1742814676.648,-704.590,-746.582,-659.668,-723.145,0.000
1742814676.651,-702.148,-750.000,-321.777,-713.379,0.000
1742814676.655,-698.242,-750.977,209.473,-711.426,0.000
1742814676.659,-702.637,-749.512,299.316,-715.332,0.000
1742814676.663,-706.055,-748.047,-190.918,-726.074,0.000
1742814676.667,-708.496,-749.512,-576.172,-715.332,0.000
1742814676.671,-713.867,-749.023,-375.488,-718.750,0.000
1742814676.675,-710.938,-744.629,164.551,-724.609,0.000
1742814676.679,-707.520,-746.094,309.570,-716.309,0.000
1742814676.683,-709.473,-742.676,-140.625,-730.469,0.000
1742814676.687,-715.332,-740.723,-595.703,-737.305,0.000
1742814676.691,-712.891,-741.211,-463.379,-724.609,0.000
1742814676.694,-708.984,-741.211,50.781,-716.797,0.000
1742814676.698,-706.055,-740.723,289.551,-719.727,0.000
1742814676.702,-710.449,-742.188,-73.730,-733.887,0.000
1742814676.706,-719.727,-742.188,-575.684,-739.258,0.000
1742814676.710,-716.309,-742.188,-475.098,-725.098,0.000
1742814676.714,-711.914,-745.117,110.840,-718.262,0.000
1742814676.718,-713.867,-750.977,314.453,-727.539,0.000
1742814676.722,-725.098,-754.883,-65.430,-732.422,0.000
1742814676.726,-732.422,-749.023,-533.203,-733.887,0.000
1742814676.730,-731.445,-747.070,-553.711,-727.051,0.000
1742814676.734,-724.121,-748.047,-126.953,-718.750,0.000
1742814676.737,-715.820,-753.418,286.621,-710.938,0.000
1742814676.741,-716.309,-754.883,63.965,-716.309,0.000
1742814676.745,-713.867,-745.117,-513.184,-724.609,0.000
1742814676.749,-721.191,-743.652,-631.836,-725.586,0.000
1742814676.753,-725.586,-751.465,-111.328,-722.656,0.000
1742814676.757,-711.914,-757.324,378.418,-701.172,0.000
1742814676.761,-712.402,-754.883,127.930,-715.820,0.000
1742814676.765,-726.562,-749.512,-473.145,-742.188,0.000
1742814676.769,-735.352,-749.023,-649.414,-744.141,0.000
1742814676.773,-730.469,-752.930,-257.812,-734.375,0.000
1742814676.776,-712.402,-752.930,251.953,-730.469,0.000
1742814676.780,-710.449,-752.930,166.504,-742.188,0.000
1742814676.784,-727.539,-759.766,-413.086,-753.418,0.000
1742814676.788,-735.352,-755.371,-660.645,-750.977,0.000
1742814676.792,-732.910,-752.441,-317.383,-742.676,0.000
1742814676.796,-727.051,-757.324,208.496,-737.305,0.000
1742814676.800,-724.609,-758.789,276.855,-722.168,0.000
1742814676.804,-729.980,-751.953,-216.309,-724.121,0.000
1742814676.808,-735.840,-747.070,-654.297,-751.953,0.000
1742814676.812,-726.074,-742.188,-404.297,-744.141,0.000
1742814676.816,-717.285,-741.699,204.590,-724.609,0.000
1742814676.819,-719.238,-748.047,258.301,-728.516,0.000
1742814676.823,-723.633,-750.000,-315.430,-745.117,0.000
1742814676.827,-729.980,-749.512,-655.762,-747.559,0.000
1742814676.831,-731.934,-753.418,-390.137,-729.980,0.000
1742814676.835,-718.262,-752.441,135.254,-717.285,0.000
1742814676.839,-719.238,-754.395,292.480,-725.586,0.000
1742814676.843,-729.004,-755.371,-118.652,-728.027,0.000
1742814676.847,-724.121,-747.070,-565.918,-723.633,0.000
1742814676.851,-728.516,-740.723,-469.238,-731.445,0.000
1742814676.855,-729.004,-741.699,29.785,-724.609,0.000
1742814676.859,-726.074,-750.977,331.055,-719.238,0.000
1742814676.862,-725.098,-752.441,31.738,-714.355,0.000
1742814676.866,-717.773,-737.793,-580.078,-717.773,0.000
1742814676.870,-713.867,-736.816,-562.500,-718.262,0.000
1742814676.874,-706.055,-738.281,4.883,-696.777,0.000
1742814676.878,-699.707,-730.957,334.961,-690.430,0.000
1742814676.882,-704.102,-734.375,-25.391,-707.031,0.000
1742814676.886,-706.055,-731.934,-580.566,-720.215,0.000
1742814676.890,-710.938,-727.539,-573.730,-721.680,0.000
1742814676.894,-709.961,-731.445,-57.129,-708.984,0.000
1742814676.898,-706.543,-734.375,333.496,-709.961,0.000
1742814676.901,-716.797,-736.328,8.789,-730.469,0.000
1742814676.905,-731.934,-735.352,-535.645,-740.723,0.000
1742814676.909,-734.375,-729.980,-622.070,-733.398,0.000
1742814676.913,-721.680,-731.445,-261.719,-728.027,0.000
1742814676.917,-715.820,-735.840,231.445,-728.516,0.000
1742814676.921,-717.773,-732.422,86.914,-720.703,0.000
1742814676.925,-721.191,-731.934,-508.301,-728.516,0.000
1742814676.929,-729.492,-732.910,-683.594,-737.793,0.000
1742814676.933,-736.328,-734.375,-304.199,-728.027,0.000
1742814676.937,-732.910,-742.188,225.098,-716.797,0.000
1742814676.941,-731.445,-751.465,155.762,-720.215,0.000
1742814676.944,-738.281,-752.930,-474.609,-745.117,0.000
1742814676.948,-736.328,-745.117,-709.961,-738.281,0.000
1742814676.952,-718.262,-742.676,-283.203,-691.406,0.000
1742814676.956,-712.891,-751.465,235.840,-692.383,0.000
1742814676.960,-705.566,-750.488,136.230,-710.449,0.000
1742814676.964,-704.590,-743.652,-463.379,-710.449,0.000
1742814676.968,-719.727,-748.047,-690.430,-717.285,0.000
1742814676.972,-720.703,-749.512,-435.059,-709.961,0.000
1742814676.976,-713.867,-751.465,53.711,-705.566,0.000
1742814676.980,-715.332,-756.836,194.824,-714.355,0.000
1742814676.984,-714.355,-748.535,-411.621,-725.098,0.000
1742814676.987,-718.262,-747.070,-715.820,-728.516,0.000
1742814676.991,-717.773,-751.953,-501.465,-728.027,0.000
1742814676.995,-706.055,-745.117,19.043,-706.543,0.000
1742814676.999,-720.703,-755.371,231.445,-710.938,0.000
1742814677.003,-735.352,-760.254,-383.301,-742.188,0.000
1742814677.007,-741.699,-760.254,-742.188,-753.906,0.000
1742814677.011,-739.746,-755.371,-519.531,-737.793,0.000
1742814677.015,-724.121,-754.395,-51.270,-721.191,0.000
1742814677.019,-722.656,-753.418,179.199,-734.863,0.000
1742814677.023,-729.492,-741.699,-277.832,-739.258,0.000
1742814677.026,-733.887,-741.211,-679.688,-731.445,0.000
1742814677.030,-735.352,-746.582,-617.188,-736.328,0.000
1742814677.034,-730.957,-751.953,-149.902,-734.863,0.000
1742814677.038,-730.957,-756.836,237.793,-731.445,0.000
1742814677.042,-735.840,-756.348,-70.801,-722.168,0.000
1742814677.046,-743.164,-754.883,-636.230,-736.816,0.000
1742814677.050,-750.000,-755.371,-689.453,-754.395,0.000
1742814677.054,-735.352,-754.883,-265.137,-733.398,0.000
1742814677.058,-719.238,-751.953,179.199,-719.238,0.000
