timestamps,TP9,AF7,AF8,TP10,Right AUX
1742813841.583,-47.852,-39.062,-155.273,-115.234,0.000
1742813841.586,-33.691,-37.109,-100.098,-131.348,0.000
1742813841.590,-30.273,-38.574,-65.918,-95.703,0.000
1742813841.594,-23.438,-42.480,-95.215,-79.102,0.000
1742813841.598,-24.902,-44.922,-123.047,-90.820,0.000
1742813841.602,-33.203,-38.086,-118.164,-80.566,0.000
1742813841.606,-28.320,-34.180,-111.816,-73.242,0.000
1742813841.610,-29.785,-37.109,-119.141,-59.082,0.000
1742813841.614,-21.484,-33.691,-132.324,-42.480,0.000
1742813841.618,-6.836,-29.297,-155.762,-15.625,0.000
1742813841.621,-9.277,-29.297,-145.020,-20.508,0.000
1742813841.625,-5.371,-29.785,-102.051,-27.832,0.000
1742813841.629,-2.930,-35.156,-99.121,-13.184,0.000
1742813841.633,2.930,-33.203,-129.395,-9.277,0.000
1742813841.637,8.789,-29.297,-173.828,-16.113,0.000
1742813841.641,0.000,-31.738,-209.961,-10.742,0.000
1742813841.645,-7.324,-31.250,-233.887,7.812,0.000
1742813841.649,-5.371,-31.250,-256.348,12.207,0.000
1742813841.653,7.324,-36.133,-279.785,27.344,0.000
1742813841.657,21.484,-40.527,-301.270,22.949,0.000
1742813841.661,2.930,-39.551,-310.059,6.836,0.000
1742813841.664,-16.602,-36.621,-312.988,33.203,0.000
1742813841.668,-8.789,-31.250,-312.012,28.320,0.000
1742813841.672,2.441,-30.762,-331.055,26.367,0.000
1742813841.676,2.930,-34.668,-345.703,52.734,0.000
1742813841.680,7.324,-38.086,-333.496,55.176,0.000
1742813841.684,10.742,-37.109,-323.730,58.594,0.000
1742813841.688,3.906,-37.598,-301.270,44.922,0.000
1742813841.692,11.230,-33.203,-259.277,44.922,0.000
1742813841.696,29.297,-29.785,-229.004,60.059,0.000
1742813841.700,28.809,-29.785,-226.562,49.805,0.000
1742813841.703,19.043,-29.297,-231.445,45.898,0.000
1742813841.707,14.648,-27.344,-211.914,41.504,0.000
1742813841.711,27.832,-23.438,-183.105,57.129,0.000
1742813841.715,36.621,-21.484,-133.789,54.199,0.000
1742813841.719,22.461,-21.973,-81.543,35.645,0.000
1742813841.723,-0.488,-28.809,-63.965,14.160,0.000
1742813841.727,-8.301,-29.297,-62.988,7.324,0.000
1742813841.731,-4.395,-30.762,-55.176,9.277,0.000
1742813841.735,-7.812,-33.691,-31.250,-1.953,0.000
1742813841.739,-16.602,-30.273,-15.625,-7.812,0.000
1742813841.743,-38.086,-35.156,-68.359,-35.156,0.000
1742813841.746,-51.758,-38.086,-126.465,-60.547,0.000
1742813841.750,-50.781,-35.645,-99.121,-46.875,0.000
1742813841.754,-48.340,-39.551,-68.848,-65.918,0.000
1742813841.758,-57.129,-43.457,-93.750,-95.215,0.000
1742813841.762,-82.031,-41.504,-86.426,-79.102,0.000
1742813841.766,-84.961,-35.156,-46.387,-90.332,0.000
1742813841.770,-70.312,-31.738,-34.668,-101.562,0.000
1742813841.774,-63.965,-26.367,-41.992,-109.375,0.000
1742813841.778,-66.406,-22.949,-46.875,-123.535,0.000
1742813841.782,-72.754,-27.344,-49.316,-141.113,0.000
1742813841.786,-81.543,-32.715,0.488,-130.859,0.000
1742813841.789,-77.637,-28.809,75.684,-107.910,0.000
1742813841.793,-68.359,-23.926,87.891,-113.770,0.000
1742813841.797,-62.500,-25.879,102.539,-118.164,0.000
1742813841.801,-68.848,-27.832,131.836,-140.137,0.000
1742813841.805,-80.078,-25.391,139.648,-129.883,0.000
1742813841.809,-69.824,-22.949,117.188,-118.652,0.000
1742813841.813,-58.594,-25.391,71.777,-111.328,0.000
1742813841.817,-58.105,-26.855,33.203,-104.980,0.000
1742813841.821,-65.430,-30.273,-9.766,-114.258,0.000
1742813841.825,-72.754,-32.227,-19.043,-113.281,0.000
1742813841.829,-61.035,-33.691,-13.184,-88.867,0.000
1742813841.832,-48.828,-35.156,-12.695,-58.594,0.000
1742813841.836,-47.363,-34.180,-12.207,-76.660,0.000
1742813841.840,-52.246,-28.320,-21.484,-101.074,0.000
1742813841.844,-64.453,-22.949,-3.418,-77.148,0.000
1742813841.848,-64.453,-36.133,-1.953,-66.406,0.000
1742813841.852,-50.293,-42.480,-17.578,-59.570,0.000
1742813841.856,-32.715,-37.109,-41.992,-65.918,0.000
1742813841.860,-37.109,-43.457,-87.402,-51.270,0.000
1742813841.864,-52.246,-43.945,-102.539,-34.180,0.000
1742813841.868,-50.781,-48.340,-99.121,-33.691,0.000
1742813841.872,-27.832,-49.316,-99.121,-20.508,0.000
1742813841.875,0.977,-37.598,-127.441,-22.949,0.000
1742813841.879,-4.883,-33.203,-164.062,-21.973,0.000
1742813841.883,-25.879,-41.016,-183.594,-34.180,0.000
1742813841.887,-31.738,-42.480,-207.520,-18.066,0.000
1742813841.891,-16.602,-38.574,-231.934,0.977,0.000
1742813841.895,-6.348,-41.016,-251.953,10.254,0.000
1742813841.899,-12.695,-40.527,-269.043,19.531,0.000
1742813841.903,-19.531,-42.969,-293.457,-12.695,0.000
1742813841.907,-18.066,-40.527,-309.570,-12.207,0.000
1742813841.911,-11.719,-33.691,-308.594,17.090,0.000
1742813841.915,-2.441,-30.762,-298.828,13.184,0.000
1742813841.918,-3.906,-32.227,-292.969,8.789,0.000
1742813841.922,-16.113,-37.109,-303.223,-4.395,0.000
1742813841.926,-23.438,-37.109,-306.152,-5.859,0.000
1742813841.930,-26.367,-41.504,-318.359,18.066,0.000
1742813841.934,-23.438,-43.457,-329.102,6.348,0.000
1742813841.938,-23.438,-43.945,-348.633,3.906,0.000
1742813841.942,-36.621,-46.387,-366.699,8.301,0.000
1742813841.946,-41.504,-41.504,-360.352,-11.230,0.000
1742813841.950,-33.691,-39.551,-358.887,-3.906,0.000
1742813841.953,-19.531,-37.109,-348.633,7.324,0.000
1742813841.957,-14.160,-31.738,-326.172,0.488,0.000
1742813841.961,-18.555,-33.691,-313.965,-6.836,0.000
1742813841.965,-15.625,-31.738,-312.012,-22.461,0.000
1742813841.969,-10.254,-31.250,-297.852,-21.973,0.000
1742813841.973,0.488,-31.250,-299.316,-20.508,0.000
1742813841.977,-3.906,-29.297,-322.266,-19.531,0.000
1742813841.981,-21.973,-27.344,-314.453,-19.531,0.000
1742813841.985,-54.688,-31.250,-292.969,-25.879,0.000
1742813841.989,-70.312,-29.297,-260.742,-13.672,0.000
1742813841.993,-48.828,-21.973,-251.953,-9.766,0.000
1742813841.996,-42.480,-20.996,-263.672,-20.508,0.000
1742813842.000,-53.223,-21.973,-245.605,-38.086,0.000
1742813842.004,-61.523,-20.020,-213.867,-49.316,0.000
1742813842.008,-56.152,-21.973,-181.152,-50.293,0.000
1742813842.012,-49.316,-23.926,-143.555,-57.129,0.000
1742813842.016,-40.039,-20.996,-119.629,-69.824,0.000
1742813842.020,-43.457,-17.578,-107.422,-87.402,0.000
1742813842.024,-70.312,-19.043,-104.004,-107.422,0.000
1742813842.028,-73.730,-21.484,-119.629,-96.191,0.000
1742813842.032,-62.500,-18.555,-114.746,-90.820,0.000
1742813842.036,-68.848,-19.043,-90.820,-97.168,0.000
1742813842.039,-75.195,-29.297,-62.012,-95.703,0.000
1742813842.043,-76.172,-32.227,-34.180,-108.398,0.000
1742813842.047,-73.242,-29.297,-17.578,-115.234,0.000
1742813842.051,-67.871,-33.203,-13.672,-102.051,0.000
1742813842.055,-61.035,-27.344,-36.621,-90.332,0.000
1742813842.059,-60.059,-23.438,-71.289,-106.934,0.000
1742813842.063,-66.895,-23.438,-86.426,-100.586,0.000
1742813842.067,-63.477,-20.508,-87.402,-99.609,0.000
1742813842.071,-57.129,-26.855,-101.074,-94.238,0.000
1742813842.075,-40.527,-26.367,-123.047,-72.266,0.000
1742813842.079,-32.715,-19.531,-130.859,-81.055,0.000
1742813842.082,-45.898,-19.531,-132.812,-92.773,0.000
1742813842.086,-56.152,-22.461,-149.414,-90.332,0.000
1742813842.090,-51.758,-19.531,-146.973,-74.219,0.000
1742813842.094,-39.062,-17.090,-139.648,-50.781,0.000
1742813842.098,-39.551,-20.020,-151.855,-51.270,0.000
1742813842.102,-37.109,-23.438,-182.617,-74.219,0.000
1742813842.106,-34.180,-26.367,-208.008,-57.617,0.000
1742813842.110,-33.691,-27.344,-215.332,-47.363,0.000
1742813842.114,-9.766,-24.902,-220.215,-35.645,0.000
1742813842.118,-1.465,-21.484,-254.395,-35.645,0.000
1742813842.121,-12.207,-22.461,-256.836,-31.738,0.000
1742813842.125,-14.648,-20.996,-216.309,-8.789,0.000
1742813842.129,-2.441,-19.043,-204.590,-5.859,0.000
1742813842.133,-9.277,-29.297,-232.422,-20.508,0.000
1742813842.137,-6.348,-33.691,-253.418,-31.250,0.000
1742813842.141,7.324,-35.156,-247.559,-19.531,0.000
1742813842.145,-12.695,-36.133,-256.836,-6.836,0.000
1742813842.149,-25.879,-29.785,-262.207,16.602,0.000
1742813842.153,-16.602,-27.832,-264.648,10.742,0.000
1742813842.157,-9.277,-25.879,-293.945,0.488,0.000
1742813842.161,-18.066,-29.785,-293.945,-11.719,0.000
1742813842.164,-22.949,-31.250,-275.391,-24.902,0.000
1742813842.168,-11.719,-28.320,-274.902,5.371,0.000
1742813842.172,0.488,-28.809,-280.273,20.996,0.000
1742813842.176,4.883,-29.785,-291.504,13.672,0.000
1742813842.180,2.930,-28.320,-303.223,6.348,0.000
1742813842.184,-8.789,-22.949,-318.359,3.906,0.000
1742813842.188,-13.672,-22.461,-351.562,18.555,0.000
1742813842.192,-7.812,-20.508,-361.328,15.625,0.000
1742813842.196,-6.836,-17.090,-334.473,2.441,0.000
1742813842.200,-18.555,-18.555,-332.520,0.000,0.000
1742813842.204,-15.137,-19.043,-363.770,-10.742,0.000
1742813842.208,-12.695,-23.438,-375.488,2.441,0.000
1742813842.211,-14.648,-26.367,-382.812,17.090,0.000
1742813842.215,-3.418,-27.344,-380.859,18.066,0.000
1742813842.219,1.953,-22.949,-359.863,15.625,0.000
1742813842.223,-16.602,-10.254,-363.281,5.859,0.000
1742813842.227,-35.645,-15.625,-383.789,6.836,0.000
1742813842.231,-26.855,-22.461,-406.250,-13.672,0.000
1742813842.235,-20.508,-23.438,-401.367,-36.133,0.000
1742813842.239,-26.367,-27.832,-377.441,-14.160,0.000
1742813842.243,-29.785,-29.297,-353.516,-15.625,0.000
1742813842.247,-36.133,-27.344,-346.191,-31.250,0.000
1742813842.251,-33.203,-22.461,-358.887,-32.715,0.000
1742813842.254,-27.344,-24.414,-383.789,-38.574,0.000
1742813842.258,-40.039,-26.855,-415.039,-64.941,0.000
1742813842.262,-61.523,-25.391,-446.777,-80.078,0.000
1742813842.266,-83.496,-31.738,-472.168,-80.566,0.000
1742813842.270,-88.379,-37.109,-492.188,-89.355,0.000
1742813842.274,-74.707,-37.598,-486.816,-100.586,0.000
1742813842.278,-65.430,-39.551,-458.984,-104.980,0.000
1742813842.282,-86.914,-39.062,-459.961,-116.211,0.000
1742813842.286,-98.145,-41.504,-463.379,-110.840,0.000
1742813842.290,-87.402,-35.156,-448.730,-104.492,0.000
1742813842.294,-70.801,-25.391,-452.637,-99.609,0.000
1742813842.297,-72.754,-27.344,-485.352,-121.582,0.000
1742813842.301,-85.449,-32.227,-539.551,-117.676,0.000
1742813842.305,-88.867,-35.156,-618.652,-103.516,0.000
1742813842.309,-94.727,-37.109,-755.859,-103.027,0.000
1742813842.313,-79.590,-29.297,-917.480,-103.516,0.000
1742813842.317,-63.965,-21.484,-987.305,-87.891,0.000
1742813842.321,-70.801,-19.531,-996.094,-91.309,0.000
1742813842.325,-81.543,-17.090,-999.512,-104.004,0.000
1742813842.329,-80.078,-17.578,-1000.000,-85.449,0.000
1742813842.333,-67.871,-16.602,-1000.000,-79.590,0.000
1742813842.336,-54.688,-20.996,-1000.000,-91.797,0.000
1742813842.340,-53.223,-27.832,-1000.000,-89.355,0.000
1742813842.344,-61.035,-28.320,-994.629,-75.684,0.000
1742813842.348,-42.969,-20.996,-978.516,-52.734,0.000
1742813842.352,-11.230,-17.578,-952.637,-16.602,0.000
1742813842.356,2.441,-15.137,-914.551,-0.488,0.000
1742813842.360,-2.441,-13.184,-873.047,-5.859,0.000
1742813842.364,-2.441,-18.066,-833.496,-17.090,0.000
1742813842.368,-8.301,-16.602,-789.551,-0.488,0.000
1742813842.372,-10.742,-21.484,-746.582,13.672,0.000
1742813842.375,-4.395,-30.273,-701.172,20.020,0.000
1742813842.379,-6.836,-28.809,-640.625,23.438,0.000
1742813842.383,-10.254,-22.461,-610.840,6.836,0.000
1742813842.387,-21.973,-23.438,-613.770,-8.789,0.000
1742813842.391,-26.367,-30.762,-604.980,8.301,0.000
1742813842.395,-15.137,-28.809,-583.984,14.648,0.000
1742813842.399,-17.578,-28.320,-537.109,-1.953,0.000
1742813842.403,-27.832,-31.250,-506.836,8.789,0.000
1742813842.407,-36.133,-41.016,-471.680,14.648,0.000
1742813842.411,-32.227,-48.828,-427.246,15.137,0.000
1742813842.414,-19.531,-43.457,-425.293,21.484,0.000
1742813842.418,-13.672,-34.180,-417.480,13.672,0.000
1742813842.422,-24.902,-28.809,-391.602,6.836,0.000
1742813842.426,-30.762,-20.996,-381.836,12.695,0.000
1742813842.430,-24.902,-20.508,-383.301,14.160,0.000
1742813842.434,-27.344,-29.297,-371.582,15.625,0.000
1742813842.438,-30.273,-36.621,-357.910,13.184,0.000
1742813842.442,-35.645,-37.598,-338.379,7.812,0.000
1742813842.446,-46.875,-30.273,-313.965,0.000,0.000
1742813842.450,-45.410,-31.250,-287.598,4.395,0.000
1742813842.454,-30.273,-30.273,-244.141,15.625,0.000
1742813842.457,-19.043,-25.391,-191.895,24.902,0.000
1742813842.461,-23.926,-30.762,-160.645,18.555,0.000
1742813842.465,-26.855,-32.227,-138.672,-4.883,0.000
1742813842.469,-30.762,-34.180,-108.887,5.859,0.000
1742813842.473,-25.879,-36.621,-95.703,4.395,0.000
1742813842.477,-27.344,-34.668,-100.098,-18.066,0.000
1742813842.481,-42.480,-31.250,-106.445,-21.973,0.000
1742813842.485,-53.223,-22.949,-136.230,-30.273,0.000
1742813842.489,-49.805,-16.602,-185.547,-33.203,0.000
1742813842.493,-47.363,-17.578,-212.402,-54.688,0.000
1742813842.497,-47.852,-17.578,-213.867,-62.500,0.000
1742813842.500,-51.270,-22.461,-223.633,-51.270,0.000
1742813842.504,-68.848,-31.738,-247.070,-74.219,0.000
1742813842.508,-81.055,-32.715,-262.207,-74.707,0.000
1742813842.512,-77.637,-32.715,-268.555,-75.195,0.000
1742813842.516,-72.754,-32.227,-271.484,-97.656,0.000
1742813842.520,-72.754,-27.832,-281.738,-114.746,0.000
1742813842.524,-81.543,-22.461,-291.992,-139.648,0.000
1742813842.528,-87.891,-16.602,-277.832,-140.625,0.000
1742813842.532,-79.102,-15.625,-263.672,-123.047,0.000
1742813842.536,-63.477,-21.973,-261.230,-114.258,0.000
1742813842.540,-70.312,-24.414,-277.344,-124.023,0.000
1742813842.543,-84.473,-23.438,-286.133,-131.348,0.000
1742813842.547,-78.613,-27.832,-280.762,-139.160,0.000
1742813842.551,-69.824,-24.414,-273.926,-120.605,0.000
1742813842.555,-62.500,-15.625,-271.973,-112.305,0.000
1742813842.559,-59.570,-14.160,-274.414,-127.441,0.000
1742813842.563,-81.543,-15.625,-291.992,-124.512,0.000
1742813842.567,-97.168,-18.555,-302.734,-122.070,0.000
1742813842.571,-81.543,-23.438,-286.621,-106.934,0.000
1742813842.575,-63.477,-26.855,-289.062,-86.914,0.000
1742813842.579,-58.594,-27.832,-309.570,-89.355,0.000
1742813842.583,-62.012,-27.832,-298.340,-103.027,0.000
1742813842.586,-65.918,-23.926,-272.461,-96.680,0.000
1742813842.590,-54.688,-14.160,-246.582,-74.707,0.000
1742813842.594,-39.062,-13.184,-228.516,-67.383,0.000
1742813842.598,-16.113,-13.672,-225.586,-59.082,0.000
1742813842.602,-18.555,-13.184,-218.262,-51.758,0.000
1742813842.606,-38.086,-21.973,-213.867,-53.223,0.000
1742813842.610,-32.715,-25.879,-212.891,-51.270,0.000
1742813842.614,0.000,-23.926,-218.262,-31.250,0.000
1742813842.618,0.000,-18.066,-218.750,-21.484,0.000
1742813842.622,0.000,-16.113,-229.492,-24.902,0.000
1742813842.626,0.000,-20.020,-256.836,-29.297,0.000
1742813842.629,0.000,-22.949,-263.184,-3.906,0.000
1742813842.633,0.000,-23.926,-258.789,7.812,0.000
1742813842.637,0.000,-24.414,-263.184,7.812,0.000
1742813842.641,0.000,-28.809,-250.977,33.691,0.000
1742813842.645,0.000,-36.621,-236.328,33.691,0.000
1742813842.649,0.000,-40.527,-221.680,22.949,0.000
1742813842.653,0.000,-33.203,-210.938,22.949,0.000
1742813842.657,0.000,-20.020,-208.984,21.973,0.000
1742813842.661,0.488,-15.137,-206.543,4.395,0.000
1742813842.665,-16.113,-21.973,-217.773,10.742,0.000
1742813842.669,-25.879,-27.832,-231.445,27.832,0.000
1742813842.672,-9.766,-27.832,-236.328,44.434,0.000
1742813842.676,-15.625,-30.762,-253.906,56.641,0.000
1742813842.680,-38.574,-29.297,-281.738,58.594,0.000
1742813842.684,-53.711,-26.367,-291.016,47.852,0.000
1742813842.688,-62.012,-23.926,-280.273,36.133,0.000
1742813842.692,-46.875,-19.531,-253.906,62.012,0.000
1742813842.696,-30.762,-20.996,-223.633,60.059,0.000
1742813842.700,-38.086,-22.461,-214.355,19.043,0.000
1742813842.704,-53.223,-25.879,-209.961,23.438,0.000
1742813842.708,-51.758,-28.320,-204.102,18.066,0.000
1742813842.711,-39.062,-27.832,-194.336,16.602,0.000
1742813842.715,-26.855,-22.949,-189.453,26.855,0.000
1742813842.719,-21.484,-11.230,-191.895,9.277,0.000
1742813842.723,-35.156,-13.672,-206.543,-18.066,0.000
1742813842.727,-50.293,-18.066,-206.543,-28.320,0.000
1742813842.731,-29.297,-14.160,-178.223,-16.602,0.000
1742813842.735,-20.508,-18.555,-148.438,2.441,0.000
1742813842.739,-35.645,-25.391,-120.605,-9.766,0.000
1742813842.743,-42.969,-27.832,-122.070,-55.176,0.000
1742813842.747,-49.316,-25.391,-125.488,-77.637,0.000
1742813842.750,-45.898,-21.484,-102.539,-38.574,0.000
1742813842.754,-39.062,-19.043,-89.844,-18.555,0.000
1742813842.758,-39.551,-16.113,-107.910,-53.223,0.000
1742813842.762,-46.875,-13.184,-115.723,-76.172,0.000
1742813842.766,-57.617,-15.137,-111.816,-62.500,0.000
1742813842.770,-47.363,-17.578,-110.352,-43.457,0.000
1742813842.774,-34.180,-18.555,-105.469,-37.109,0.000
1742813842.778,-38.086,-18.555,-113.770,-64.453,0.000
1742813842.782,-48.828,-20.508,-114.258,-80.078,0.000
1742813842.786,-44.434,-15.137,-93.750,-65.918,0.000
1742813842.790,-39.062,-8.301,-77.637,-76.660,0.000
1742813842.793,-41.504,-11.230,-68.848,-82.031,0.000
1742813842.797,-38.574,-13.184,-62.988,-85.449,0.000
1742813842.801,-52.734,-18.555,-65.918,-92.285,0.000
1742813842.805,-62.012,-25.879,-84.473,-87.891,0.000
1742813842.809,-53.223,-27.344,-94.727,-84.961,0.000
1742813842.813,-37.109,-20.996,-83.496,-80.566,0.000
1742813842.817,-28.320,-18.555,-81.543,-75.195,0.000
1742813842.821,-43.457,-17.090,-85.449,-102.051,0.000
1742813842.825,-46.387,-11.230,-88.867,-107.910,0.000
1742813842.829,-42.480,-8.789,-84.473,-87.891,0.000
1742813842.832,-37.109,-9.766,-89.355,-66.406,0.000
1742813842.836,-24.902,-10.254,-101.562,-68.359,0.000
1742813842.840,-32.715,-9.766,-94.727,-81.055,0.000
1742813842.844,-37.109,-17.090,-68.848,-79.102,0.000
1742813842.848,-38.086,-26.367,-65.430,-70.801,0.000
1742813842.852,-30.762,-25.879,-71.289,-46.875,0.000
1742813842.856,-26.855,-23.438,-69.824,-42.480,0.000
1742813842.860,-24.902,-21.973,-78.613,-42.969,0.000
1742813842.864,-27.832,-21.484,-96.680,-42.480,0.000
1742813842.868,-38.086,-28.320,-125.977,-48.340,0.000
1742813842.872,-20.996,-30.273,-123.047,-26.367,0.000
1742813842.875,-10.742,-32.715,-113.281,-12.695,0.000
1742813842.879,-21.973,-41.016,-120.117,-17.578,0.000
1742813842.883,-28.809,-38.086,-116.699,-15.137,0.000
1742813842.887,-25.391,-28.809,-101.074,-12.207,0.000
1742813842.891,-4.883,-27.344,-108.398,-1.465,0.000
1742813842.895,-3.906,-30.273,-130.371,14.648,0.000
1742813842.899,-12.695,-25.879,-119.141,12.207,0.000
1742813842.903,-20.996,-28.809,-113.281,-10.254,0.000
1742813842.907,-35.156,-33.203,-130.371,6.836,0.000
1742813842.911,-17.090,-30.273,-151.367,31.250,0.000
1742813842.915,-6.348,-32.715,-161.621,16.602,0.000
1742813842.918,-23.438,-31.738,-150.879,-1.465,0.000
1742813842.922,-20.508,-28.320,-149.902,8.789,0.000
1742813842.926,-23.926,-23.438,-167.480,17.090,0.000
1742813842.930,-36.133,-20.020,-161.133,14.160,0.000
1742813842.934,-28.320,-20.020,-137.207,9.277,0.000
1742813842.938,-19.531,-21.973,-128.906,-2.441,0.000
1742813842.942,-23.438,-25.879,-117.188,0.977,0.000
1742813842.946,-30.762,-27.344,-100.586,11.719,0.000
1742813842.950,-22.461,-28.809,-99.609,1.953,0.000
1742813842.954,-22.461,-27.832,-123.535,11.230,0.000
1742813842.958,-31.738,-26.855,-136.230,13.184,0.000
1742813842.961,-36.133,-24.414,-117.676,-7.324,0.000
1742813842.965,-48.828,-17.578,-97.168,-7.324,0.000
1742813842.969,-51.270,-20.508,-101.074,4.395,0.000
1742813842.973,-41.992,-32.227,-102.539,3.906,0.000
1742813842.977,-35.645,-33.203,-83.496,-2.930,0.000
1742813842.981,-48.828,-29.297,-86.426,-16.113,0.000
1742813842.985,-60.547,-30.762,-77.637,-19.531,0.000
1742813842.989,-49.805,-30.273,-44.922,-36.621,0.000
1742813842.993,-45.410,-25.879,-26.855,-33.203,0.000
1742813842.997,-48.828,-18.066,-6.348,-22.461,0.000
1742813843.001,-59.082,-15.625,-28.320,-42.480,0.000
1742813843.004,-76.172,-15.625,-60.059,-53.711,0.000
1742813843.008,-85.449,-17.578,-58.105,-47.852,0.000
1742813843.012,-77.637,-26.367,-35.645,-40.527,0.000
1742813843.016,-71.777,-29.297,-14.160,-52.734,0.000
1742813843.020,-78.613,-27.832,-24.414,-64.941,0.000
1742813843.024,-89.844,-29.297,0.488,-70.312,0.000
1742813843.028,-94.727,-30.273,37.109,-84.961,0.000
1742813843.032,-83.984,-24.902,37.109,-83.008,0.000
1742813843.036,-70.801,-18.555,28.809,-82.031,0.000
1742813843.040,-69.336,-17.090,20.996,-90.332,0.000
1742813843.044,-75.195,-22.949,13.184,-93.750,0.000
1742813843.047,-84.961,-28.320,10.742,-87.402,0.000
1742813843.051,-77.148,-34.180,12.207,-79.102,0.000
1742813843.055,-57.129,-36.133,12.207,-88.379,0.000
1742813843.059,-54.688,-24.414,-8.301,-95.703,0.000
1742813843.063,-75.684,-21.484,-43.457,-93.750,0.000
1742813843.067,-90.820,-16.602,-46.875,-86.914,0.000
1742813843.071,-79.102,-13.672,-55.176,-91.797,0.000
1742813843.075,-61.035,-13.672,-75.684,-93.750,0.000
1742813843.079,-60.547,-14.648,-82.031,-77.148,0.000
1742813843.083,-72.754,-22.949,-98.145,-75.684,0.000
1742813843.086,-72.754,-23.438,-90.332,-74.707,0.000
1742813843.090,-68.848,-25.391,-79.590,-66.895,0.000
1742813843.094,-58.105,-27.344,-80.566,-67.383,0.000
1742813843.098,-59.570,-23.438,-86.426,-70.312,0.000
1742813843.102,-67.383,-19.043,-112.305,-62.988,0.000
1742813843.106,-67.383,-15.625,-138.672,-63.477,0.000
1742813843.110,-67.383,-18.555,-144.043,-64.941,0.000
1742813843.114,-51.758,-20.508,-125.000,-62.988,0.000
1742813843.118,-44.434,-23.926,-121.094,-64.453,0.000
1742813843.122,-58.105,-28.809,-128.418,-63.477,0.000
1742813843.125,-66.406,-33.691,-134.277,-59.082,0.000
1742813843.129,-67.871,-34.668,-145.508,-50.293,0.000
1742813843.133,-56.641,-25.391,-129.883,-41.016,0.000
1742813843.137,-45.898,-17.578,-104.980,-27.344,0.000
1742813843.141,-51.270,-15.625,-102.051,-30.273,0.000
1742813843.145,-48.828,-10.742,-113.770,-43.457,0.000
1742813843.149,-48.828,-22.949,-115.723,-49.316,0.000
1742813843.153,-48.828,-29.297,-105.957,-24.902,0.000
1742813843.157,-30.273,-28.320,-92.285,7.324,0.000
1742813843.161,-35.156,-34.668,-81.543,0.488,0.000
1742813843.165,-56.152,-35.156,-114.746,-3.906,0.000
1742813843.168,-48.828,-29.297,-128.906,-2.441,0.000
1742813843.172,-44.922,-20.996,-129.395,15.137,0.000
1742813843.176,-26.855,-11.719,-157.715,21.484,0.000
1742813843.180,-14.160,-9.766,-173.828,15.625,0.000
1742813843.184,-24.902,-18.066,-172.852,17.090,0.000
1742813843.188,-20.020,-22.949,-145.508,23.438,0.000
1742813843.192,-14.648,-27.344,-108.887,40.039,0.000
1742813843.196,-13.184,-31.738,-98.633,33.203,0.000
1742813843.200,-14.648,-28.320,-98.145,31.738,0.000
1742813843.204,-15.137,-22.461,-99.121,38.086,0.000
1742813843.207,-16.602,-17.090,-91.797,36.133,0.000
1742813843.211,-19.531,-10.254,-79.590,48.340,0.000
1742813843.215,-18.066,-15.625,-88.867,40.527,0.000
1742813843.219,-18.555,-21.484,-94.238,19.043,0.000
1742813843.223,-27.344,-25.879,-101.562,6.348,0.000
1742813843.227,-34.668,-31.738,-118.652,4.883,0.000
1742813843.231,-30.762,-27.344,-111.816,11.719,0.000
1742813843.235,-27.832,-28.320,-96.680,9.277,0.000
1742813843.239,-27.832,-25.879,-104.980,1.465,0.000
1742813843.243,-29.297,-17.578,-124.023,-4.395,0.000
1742813843.246,-39.062,-15.625,-132.812,-36.133,0.000
1742813843.250,-43.457,-10.742,-130.371,-31.738,0.000
1742813843.254,-34.668,-11.719,-146.484,-16.113,0.000
1742813843.258,-34.668,-17.578,-152.344,-18.555,0.000
1742813843.262,-43.457,-17.578,-137.207,-25.391,0.000
1742813843.266,-55.176,-19.531,-125.488,-31.250,0.000
1742813843.270,-59.082,-22.461,-131.348,-25.391,0.000
1742813843.274,-50.293,-18.066,-135.254,-41.992,0.000
1742813843.278,-62.012,-13.184,-126.953,-54.688,0.000
1742813843.282,-77.148,-16.113,-135.742,-62.988,0.000
1742813843.286,-77.637,-21.973,-140.625,-72.754,0.000
1742813843.289,-76.172,-22.461,-113.281,-56.641,0.000
1742813843.293,-69.824,-19.043,-91.309,-73.730,0.000
1742813843.297,-75.195,-23.438,-78.125,-83.984,0.000
1742813843.301,-85.449,-32.227,-67.383,-67.871,0.000
1742813843.305,-92.285,-27.344,-56.152,-61.523,0.000
1742813843.309,-88.867,-20.508,-37.109,-56.641,0.000
1742813843.313,-77.637,-19.043,-33.691,-67.383,0.000
1742813843.317,-72.754,-15.137,-34.668,-69.824,0.000
1742813843.321,-72.754,-12.207,-20.996,-78.125,0.000
1742813843.325,-84.473,-13.672,-14.160,-107.422,0.000
1742813843.329,-93.750,-19.043,-11.230,-102.051,0.000
1742813843.332,-83.984,-21.484,-6.836,-81.543,0.000
1742813843.336,-76.172,-25.391,-18.555,-83.008,0.000
1742813843.340,-86.914,-28.809,-44.922,-98.145,0.000
1742813843.344,-93.750,-21.973,-93.262,-105.469,0.000
1742813843.348,-91.309,-19.531,-130.371,-95.703,0.000
1742813843.352,-72.266,-20.508,-122.559,-101.074,0.000
1742813843.356,-53.223,-19.531,-112.305,-104.004,0.000
1742813843.360,-52.246,-22.949,-145.508,-91.797,0.000
1742813843.364,-44.922,-24.414,-173.340,-86.914,0.000
1742813843.368,-31.250,-18.555,-165.039,-80.078,0.000
1742813843.372,-30.273,-19.531,-149.414,-71.777,0.000
1742813843.375,-40.039,-24.902,-145.996,-62.012,0.000
1742813843.379,-46.387,-27.832,-145.508,-70.312,0.000
1742813843.383,-56.641,-31.738,-130.371,-73.242,0.000
1742813843.387,-66.895,-36.621,-121.094,-64.453,0.000
1742813843.391,-57.129,-39.551,-134.766,-40.527,0.000
1742813843.395,-39.551,-36.133,-134.766,-28.320,0.000
1742813843.399,-38.574,-31.738,-99.121,-29.297,0.000
1742813843.403,-42.969,-25.879,-63.477,-9.766,0.000
1742813843.407,-27.344,-18.066,-64.453,-22.949,0.000
1742813843.411,-33.203,-18.066,0.000,-24.414,0.000
1742813843.415,-39.551,-21.484,0.000,-11.230,0.000
1742813843.418,-33.203,-21.484,0.000,-13.184,0.000
1742813843.422,-44.434,-28.320,0.000,0.977,0.000
1742813843.426,-39.551,-28.809,0.000,1.465,0.000
1742813843.430,-35.156,-26.367,0.000,-1.953,0.000
1742813843.434,-31.738,-26.367,0.000,23.438,0.000
1742813843.438,-30.762,-21.973,0.000,34.180,0.000
1742813843.442,-41.016,-21.484,0.000,19.043,0.000
1742813843.446,-48.828,-20.996,0.000,8.301,0.000
1742813843.450,-51.270,-18.555,0.000,-0.977,0.000
1742813843.454,-46.387,-20.996,0.000,8.789,0.000
1742813843.457,-33.203,-23.926,-82.520,17.090,0.000
1742813843.461,-33.203,-20.020,-99.609,-0.488,0.000
1742813843.465,-40.039,-19.043,-110.352,-9.277,0.000
1742813843.469,-36.133,-14.648,-109.863,-0.977,0.000
1742813843.473,-34.668,-14.648,-115.234,2.930,0.000
1742813843.477,-44.922,-17.578,-134.766,-5.371,0.000
1742813843.481,-52.246,-18.066,-131.348,-24.414,0.000
1742813843.485,-63.965,-20.020,-113.770,-40.527,0.000
1742813843.488,-67.383,-25.391,-69.336,-25.391,0.000
1742813843.492,-48.340,-29.297,-22.461,2.441,0.000
1742813843.496,-40.527,-29.297,3.906,-4.883,0.000
1742813843.500,-47.852,-26.855,9.766,-21.484,0.000
1742813843.504,-58.105,-24.414,-33.691,-25.879,0.000
1742813843.508,-59.082,-22.949,-4.883,-18.555,0.000
1742813843.512,-48.828,-19.043,28.809,-9.766,0.000
1742813843.516,-41.992,-17.090,63.965,-31.738,0.000
1742813843.520,-47.852,-15.137,85.449,-43.457,0.000
1742813843.524,-59.570,-17.578,81.543,-33.203,0.000
1742813843.528,-57.129,-23.438,54.688,-44.434,0.000
1742813843.531,-53.223,-27.344,56.641,-50.293,0.000
1742813843.535,-61.035,-27.344,76.660,-58.594,0.000
1742813843.539,-66.895,-29.297,74.219,-57.617,0.000
1742813843.543,-75.684,-30.273,75.684,-64.941,0.000
1742813843.547,-81.543,-27.344,84.961,-86.426,0.000
1742813843.551,-74.707,-26.855,97.656,-80.566,0.000
1742813843.555,-66.895,-29.297,109.863,-76.660,0.000
1742813843.559,-71.289,-27.344,123.535,-82.031,0.000
1742813843.563,-78.613,-22.461,118.164,-96.680,0.000
1742813843.567,-81.055,-26.855,83.496,-91.309,0.000
1742813843.570,-72.266,-26.367,56.152,-81.055,0.000
1742813843.574,-66.895,-19.531,38.086,-101.074,0.000
1742813843.578,-78.613,-22.949,36.621,-117.676,0.000
1742813843.582,-91.797,-26.855,38.574,-114.746,0.000
1742813843.586,-81.543,-22.461,33.691,-110.840,0.000
1742813843.590,-79.590,-22.461,30.762,-111.816,0.000
1742813843.594,-86.426,-23.438,33.691,-105.469,0.000
1742813843.598,-70.801,-18.066,51.270,-87.402,0.000
1742813843.602,-63.477,-15.625,46.875,-80.078,0.000
1742813843.606,-66.895,-18.066,27.832,-96.191,0.000
1742813843.610,-62.012,-20.996,24.414,-69.824,0.000
1742813843.613,-55.176,-23.438,14.160,-58.594,0.000
1742813843.617,-58.105,-27.344,-1.953,-69.336,0.000
1742813843.621,-54.199,-23.926,7.812,-64.941,0.000
1742813843.625,-59.082,-26.367,11.719,-72.266,0.000
1742813843.629,-62.988,-34.180,-12.695,-50.781,0.000
1742813843.633,-45.898,-38.086,-24.414,-27.832,0.000
1742813843.637,-33.691,-34.180,-12.207,-9.766,0.000
1742813843.641,-30.273,-29.297,-5.859,1.953,0.000
1742813843.645,-39.062,-26.855,-22.949,-16.113,0.000
1742813843.649,-41.992,-19.531,-42.480,2.930,0.000
1742813843.653,-35.645,-19.531,-45.410,16.113,0.000
1742813843.656,-35.645,-24.902,-40.527,-8.301,0.000
1742813843.660,-48.828,-34.180,-52.246,-12.207,0.000
1742813843.664,-55.176,-41.504,-48.828,-9.766,0.000
1742813843.668,-54.199,-41.992,-24.414,3.418,0.000
1742813843.672,-45.898,-34.668,-2.930,19.531,0.000
1742813843.676,-35.645,-26.367,8.301,7.324,0.000
1742813843.680,-39.062,-17.578,16.113,-2.930,0.000
1742813843.684,-52.734,-12.695,37.598,-1.953,0.000
1742813843.688,-54.199,-14.648,46.875,-12.207,0.000
1742813843.692,-52.734,-21.973,53.223,0.977,0.000
1742813843.696,-49.805,-30.762,56.641,10.254,0.000
1742813843.699,-52.734,-35.645,55.176,22.461,0.000
1742813843.703,-61.523,-35.645,51.758,21.484,0.000
1742813843.707,-58.105,-25.879,64.941,7.812,0.000
1742813843.711,-45.898,-20.508,83.496,16.602,0.000
1742813843.715,-35.645,-17.090,85.938,21.973,0.000
1742813843.719,-37.109,-17.090,74.219,0.488,0.000
1742813843.723,-44.434,-23.438,54.199,-0.488,0.000
1742813843.727,-42.480,-25.879,58.105,9.277,0.000
1742813843.731,-33.691,-30.762,75.195,8.789,0.000
1742813843.734,-29.297,-31.250,73.730,10.742,0.000
1742813843.738,-27.832,-27.832,58.105,11.719,0.000
1742813843.742,-39.551,-29.297,52.734,6.836,0.000
1742813843.746,-50.293,-30.762,36.621,-20.508,0.000
1742813843.750,-35.645,-24.414,25.879,-21.484,0.000
1742813843.754,-20.508,-15.137,20.996,-15.625,0.000
1742813843.758,-26.367,-13.184,5.859,-4.395,0.000
1742813843.762,-32.715,-17.090,-4.395,-2.441,0.000
1742813843.766,-53.711,-23.926,-10.254,-27.832,0.000
1742813843.770,-66.406,-31.738,-10.254,-23.926,0.000
1742813843.774,-54.688,-34.668,-7.812,-31.250,0.000
1742813843.777,-59.082,-30.273,-17.090,-43.457,0.000
1742813843.781,-59.082,-20.508,-24.414,-52.246,0.000
1742813843.785,-54.199,-16.602,-18.066,-53.223,0.000
1742813843.789,-62.012,-17.090,-20.508,-45.898,0.000
1742813843.793,-56.641,-15.137,-23.438,-38.086,0.000
1742813843.797,-51.270,-16.602,-14.648,-42.480,0.000
1742813843.801,-56.641,-21.973,-8.301,-59.570,0.000
1742813843.805,-67.383,-28.809,-9.277,-66.406,0.000
1742813843.809,-60.547,-24.902,-0.488,-69.336,0.000
1742813843.813,-45.898,-17.578,3.418,-66.895,0.000
1742813843.817,-43.945,-12.207,15.625,-73.730,0.000
1742813843.820,-58.105,-7.812,17.578,-87.402,0.000
1742813843.824,-71.289,-4.395,12.695,-87.402,0.000
1742813843.828,-68.359,-7.812,21.973,-79.590,0.000
1742813843.832,-70.312,-19.043,21.484,-62.012,0.000
1742813843.836,-72.266,-28.809,0.488,-56.152,0.000
1742813843.840,-73.730,-29.785,-31.250,-76.172,0.000
1742813843.844,-84.961,-29.785,-42.969,-95.215,0.000
1742813843.848,-87.891,-29.297,-43.457,-86.914,0.000
1742813843.852,-71.777,-22.461,-41.504,-83.496,0.000
1742813843.856,-61.035,-20.996,-46.387,-98.633,0.000
1742813843.860,-67.871,-23.926,-54.199,-91.797,0.000
1742813843.863,-70.801,-26.855,-47.363,-87.402,0.000
1742813843.867,-75.684,-32.227,-42.480,-89.844,0.000
1742813843.871,-76.660,-39.062,-56.152,-62.988,0.000
1742813843.875,-61.035,-39.062,-60.059,-51.270,0.000
1742813843.879,-60.059,-33.203,-44.434,-45.898,0.000
1742813843.883,-59.082,-20.996,-40.039,-47.852,0.000
1742813843.887,-53.711,-13.184,-53.711,-61.035,0.000
1742813843.891,-51.270,-17.090,-57.617,-47.363,0.000
1742813843.895,-43.945,-20.508,-50.781,-32.227,0.000
1742813843.899,-40.527,-21.973,-56.641,-27.344,0.000
1742813843.902,-50.781,-31.250,-75.195,-46.387,0.000
1742813843.906,-48.828,-41.504,-83.984,-43.457,0.000
1742813843.910,-33.203,-38.574,-72.754,-16.602,0.000
1742813843.914,-29.297,-35.645,-73.730,-4.883,0.000
1742813843.918,-33.691,-36.133,-78.613,-4.395,0.000
1742813843.922,-37.109,-33.203,-71.289,-18.066,0.000
1742813843.926,-37.598,-29.297,-81.055,-13.672,0.000
1742813843.930,-38.574,-29.297,-107.422,3.418,0.000
1742813843.934,-34.668,-35.645,-121.094,13.672,0.000
1742813843.938,-20.508,-37.109,-118.652,10.742,0.000
1742813843.942,-25.391,-34.180,-122.559,11.719,0.000
1742813843.945,-36.133,-32.227,-138.672,2.930,0.000
1742813843.949,-36.133,-28.809,-146.484,24.902,0.000
1742813843.953,-28.320,-29.297,-144.043,5.859,0.000
1742813843.957,-25.879,-24.902,-141.602,-20.020,0.000
1742813843.961,-28.320,-24.414,-143.555,-4.883,0.000
1742813843.965,-36.133,-22.949,-155.273,1.953,0.000
1742813843.969,-41.992,-24.902,-160.156,5.859,0.000
1742813843.973,-41.016,-33.203,-148.438,20.020,0.000
1742813843.977,-37.598,-40.039,-147.949,5.859,0.000
1742813843.981,-41.992,-41.504,-152.832,1.465,0.000
1742813843.985,-63.477,-38.574,-161.621,-11.230,0.000
1742813843.988,-70.312,-36.133,-163.574,-22.949,0.000
1742813843.992,-64.453,-32.715,-157.227,-3.418,0.000
1742813843.996,-59.082,-28.809,-149.414,-13.184,0.000
1742813844.000,-53.711,-25.879,-139.648,-31.250,0.000
1742813844.004,-49.805,-26.855,-146.484,-32.715,0.000
1742813844.008,-60.059,-32.227,-151.367,-21.484,0.000
1742813844.012,-55.664,-33.691,-127.441,-18.066,0.000
1742813844.016,-40.527,-30.762,-109.375,-23.438,0.000
1742813844.020,-48.340,-21.973,-105.469,-21.484,0.000
1742813844.024,-53.711,-13.184,-106.934,-26.367,0.000
1742813844.028,-48.828,-14.160,-110.352,-34.180,0.000
1742813844.031,-41.504,-14.160,-123.535,-30.273,0.000
1742813844.035,-37.598,-15.137,-146.484,-28.809,0.000
1742813844.039,-44.434,-17.090,-154.297,-41.016,0.000
1742813844.043,-64.941,-19.531,-137.207,-60.547,0.000
1742813844.047,-75.195,-25.879,-114.258,-61.523,0.000
1742813844.051,-62.012,-26.367,-105.469,-62.012,0.000
1742813844.055,-55.664,-16.602,-104.004,-75.684,0.000
1742813844.059,-63.477,-15.625,-106.445,-80.078,0.000
1742813844.063,-74.219,-18.555,-134.766,-95.703,0.000
1742813844.067,-84.473,-18.555,-165.527,-99.609,0.000
1742813844.071,-75.684,-24.902,-174.316,-83.496,0.000
1742813844.074,-80.078,-32.227,-176.758,-79.590,0.000
1742813844.078,-105.469,-43.457,-187.500,-84.473,0.000
1742813844.082,-96.680,-48.340,-201.660,-97.168,0.000
1742813844.086,-87.891,-38.086,-197.754,-105.957,0.000
1742813844.090,-88.867,-32.715,-197.754,-99.121,0.000
1742813844.094,-79.102,-32.715,-218.750,-99.609,0.000
1742813844.098,-68.848,-30.273,-236.816,-110.352,0.000
1742813844.102,-63.477,-25.879,-236.328,-117.188,0.000
1742813844.106,-62.012,-25.879,-237.305,-96.680,0.000
1742813844.109,-48.828,-30.762,-248.047,-79.102,0.000
1742813844.113,-38.086,-31.738,-247.070,-72.754,0.000
1742813844.117,-46.387,-32.227,-226.074,-59.082,0.000
1742813844.121,-53.711,-30.762,-221.191,-49.805,0.000
1742813844.125,-65.430,-25.879,-225.586,-41.016,0.000
1742813844.129,-63.477,-22.949,-223.633,-48.340,0.000
1742813844.133,-49.316,-24.902,-225.098,-44.434,0.000
1742813844.137,-49.805,-30.273,-227.539,-35.156,0.000
1742813844.141,-50.781,-31.738,-243.652,-47.852,0.000
1742813844.145,-43.945,-30.762,-246.094,-41.992,0.000
1742813844.149,-35.645,-34.180,-231.445,-10.254,0.000
1742813844.152,-21.973,-31.250,-243.164,12.695,0.000
1742813844.156,-10.742,-26.855,-266.602,7.812,0.000
1742813844.160,-24.414,-26.855,-262.695,-5.371,0.000
1742813844.164,-42.480,-22.949,-233.887,-9.277,0.000
1742813844.168,-46.387,-21.973,-229.492,-10.254,0.000
1742813844.172,-45.898,-21.973,-243.164,-6.348,0.000
1742813844.176,-43.457,-23.926,-243.652,-9.766,0.000
1742813844.180,-50.781,-32.227,-240.234,-17.578,0.000
1742813844.184,-54.199,-34.180,-237.305,-17.578,0.000
1742813844.188,-50.293,-32.715,-236.328,-7.812,0.000
1742813844.192,-46.875,-29.297,-221.191,-12.207,0.000
1742813844.195,-41.504,-23.926,-199.707,-4.395,0.000
1742813844.199,-47.852,-14.648,-210.449,-9.766,0.000
1742813844.203,-55.176,-5.859,-205.566,-31.250,0.000
1742813844.207,-44.922,-6.348,-170.410,-11.230,0.000
1742813844.211,-41.016,-10.254,-149.902,14.648,0.000
1742813844.215,-42.480,-17.090,-153.809,19.043,0.000
1742813844.219,-36.621,-23.926,-154.297,12.695,0.000
1742813844.223,-37.109,-24.414,-139.160,9.766,0.000
1742813844.227,-50.293,-20.996,-137.207,-0.977,0.000
1742813844.231,-45.410,-17.578,-131.348,5.859,0.000
1742813844.234,-28.809,-11.230,-124.023,23.438,0.000
1742813844.238,-20.996,-4.883,-130.371,13.672,0.000
1742813844.242,-32.715,0.000,-151.367,8.301,0.000
1742813844.246,-34.668,5.371,-160.156,16.113,0.000
1742813844.250,-21.973,-2.930,-154.297,19.531,0.000
1742813844.254,-18.066,-22.461,-150.391,7.324,0.000
1742813844.258,-17.090,-28.809,-143.066,-9.277,0.000
1742813844.262,-18.066,-22.949,-138.672,-7.812,0.000
1742813844.266,-29.785,-24.414,-129.883,-16.602,0.000
1742813844.270,-39.551,-22.461,-115.723,-20.020,0.000
1742813844.274,-36.133,-10.254,-99.609,-21.484,0.000
1742813844.277,-39.551,-5.859,-96.680,-30.273,0.000
1742813844.281,-47.852,-8.301,-83.984,-42.480,0.000
1742813844.285,-65.918,-16.113,-55.664,-62.988,0.000
1742813844.289,-68.848,-20.508,-48.340,-69.824,0.000
1742813844.293,-59.082,-24.902,-43.457,-60.059,0.000
1742813844.297,-61.035,-27.832,-41.504,-63.477,0.000
1742813844.301,-72.754,-28.809,-46.875,-80.566,0.000
1742813844.305,-83.008,-22.949,-57.617,-82.031,0.000
1742813844.309,-75.684,-11.230,-47.852,-74.707,0.000
1742813844.313,-67.871,-11.230,-30.762,-77.637,0.000
1742813844.317,-72.266,-16.602,-22.949,-88.867,0.000
1742813844.320,-76.660,-26.367,-21.973,-94.238,0.000
1742813844.324,-74.219,-29.785,-18.066,-77.637,0.000
1742813844.328,-73.242,-28.320,-4.883,-60.547,0.000
1742813844.332,-60.547,-31.738,2.930,-54.688,0.000
1742813844.336,-62.500,-30.762,0.000,-52.734,0.000
1742813844.340,-68.848,-25.879,-10.742,-69.824,0.000
1742813844.344,-63.477,-20.020,-17.090,-73.730,0.000
1742813844.348,-64.453,-14.160,-36.133,-71.777,0.000
1742813844.352,-60.547,-11.719,-59.570,-63.477,0.000
1742813844.356,-52.246,-20.508,-70.312,-55.176,0.000
1742813844.359,-54.688,-27.344,-77.637,-69.824,0.000
1742813844.363,-55.176,-26.855,-86.914,-62.500,0.000
1742813844.367,-50.781,-28.320,-98.145,-34.180,0.000
1742813844.371,-39.551,-28.809,-105.957,-25.879,0.000
1742813844.375,-32.227,-29.785,-113.770,-21.973,0.000
1742813844.379,-29.297,-28.809,-121.582,-28.320,0.000
1742813844.383,-31.250,-22.461,-127.930,-31.738,0.000
1742813844.387,-33.691,-16.602,-137.207,-31.250,0.000
1742813844.391,-28.809,-12.207,-127.930,-22.949,0.000
1742813844.395,-20.020,-19.043,-104.980,-5.859,0.000
1742813844.399,-18.066,-21.973,-90.820,-7.812,0.000
1742813844.402,-30.762,-24.414,-90.820,-25.879,0.000
1742813844.406,-36.621,-32.227,-92.773,-13.672,0.000
1742813844.410,-29.297,-35.645,-83.008,15.137,0.000
1742813844.414,-27.832,-31.738,-73.730,15.137,0.000
1742813844.418,-32.227,-29.785,-62.012,-1.953,0.000
1742813844.422,-34.180,-29.297,-56.152,-9.277,0.000
1742813844.426,-36.133,-23.926,-58.105,3.418,0.000
1742813844.430,-34.180,-18.066,-57.129,4.395,0.000
1742813844.434,-20.996,-15.625,-45.410,11.230,0.000
1742813844.438,-23.438,-19.531,-45.410,22.949,0.000
1742813844.442,-34.668,-25.879,-47.852,6.836,0.000
1742813844.445,-48.828,-30.273,-53.223,7.324,0.000
1742813844.449,-42.480,-24.902,-71.777,18.066,0.000
1742813844.453,-25.391,-19.043,-91.797,7.324,0.000
1742813844.457,-46.875,-18.555,-107.422,0.488,0.000
1742813844.461,-61.035,-19.043,-112.305,-4.883,0.000
1742813844.465,-63.477,-25.391,-109.375,10.254,0.000
1742813844.469,-63.477,-27.344,-116.211,10.254,0.000
1742813844.473,-50.781,-23.438,-120.117,3.906,0.000
1742813844.477,-49.316,-22.949,-91.309,2.441,0.000
1742813844.481,-44.922,-18.066,-69.336,-3.906,0.000
1742813844.484,-41.992,-13.672,-77.148,-16.113,0.000
1742813844.488,-56.641,-15.625,-63.965,-19.531,0.000
1742813844.492,-49.316,-15.137,-33.691,-4.395,0.000
1742813844.496,-44.434,-13.184,-22.461,-4.395,0.000
1742813844.500,-55.664,-15.625,-23.926,-18.555,0.000
1742813844.504,-61.035,-17.578,-23.438,-33.203,0.000
1742813844.508,-62.988,-20.508,-20.020,-29.785,0.000
1742813844.512,-48.340,-19.531,-21.484,-14.160,0.000
1742813844.516,-45.410,-17.090,-18.555,-11.719,0.000
1742813844.520,-54.688,-19.043,-14.648,-36.133,0.000
1742813844.523,-54.688,-19.531,-4.883,-52.734,0.000
1742813844.527,-52.734,-18.066,2.930,-33.691,0.000
1742813844.531,-47.363,-17.090,-0.977,-21.484,0.000
1742813844.535,0.000,-13.672,0.000,-25.391,0.000
1742813844.539,0.000,-14.160,0.000,-51.270,0.000
1742813844.543,0.000,-15.137,0.000,-63.477,0.000
1742813844.547,0.000,-18.066,0.000,-42.969,0.000
1742813844.551,0.000,-24.414,0.000,-58.105,0.000
1742813844.555,0.000,-26.367,0.000,-74.219,0.000
1742813844.559,0.000,-27.344,0.000,-81.543,0.000
1742813844.563,0.000,-18.555,0.000,-80.078,0.000
1742813844.566,0.000,-14.160,0.000,-63.965,0.000
1742813844.570,0.000,-15.625,0.000,-69.336,0.000
1742813844.574,0.000,-13.184,0.000,-68.848,0.000
1742813844.578,0.000,-10.742,0.000,-84.473,0.000
1742813844.582,-76.172,-11.230,-129.395,-107.910,0.000
1742813844.586,-83.496,-22.949,-146.484,-87.402,0.000
1742813844.590,-71.777,-22.461,-156.250,-72.754,0.000
1742813844.594,-62.500,-19.043,-179.688,-62.012,0.000
1742813844.598,-64.453,-21.973,-194.824,-75.684,0.000
1742813844.602,-64.941,-21.973,-187.500,-86.426,0.000
1742813844.606,-69.336,-19.043,-182.617,-77.148,0.000
1742813844.609,-57.129,-13.672,-174.805,-69.824,0.000
1742813844.613,-40.527,-11.719,-152.344,-61.523,0.000
1742813844.617,-49.316,-11.230,-148.438,-66.406,0.000
1742813844.621,-60.547,-14.160,-169.434,-61.035,0.000
1742813844.625,-63.965,-19.043,-167.969,-53.711,0.000
1742813844.629,-59.082,-23.438,-141.602,-57.129,0.000
1742813844.633,-33.691,-20.508,-134.277,-37.598,0.000
1742813844.637,-18.555,-15.625,-145.508,-27.832,0.000
1742813844.641,-26.367,-15.137,-142.090,-8.789,0.000
1742813844.645,-31.738,-16.113,-131.348,14.160,0.000
1742813844.648,-26.855,-18.066,-128.418,4.395,0.000
1742813844.652,-29.785,-23.926,-132.812,0.488,0.000
1742813844.656,-29.297,-25.391,-115.234,-2.441,0.000
1742813844.660,-29.785,-20.996,-95.215,-10.254,0.000
1742813844.664,-38.574,-23.926,-96.191,-6.348,0.000
1742813844.668,-38.574,-29.297,-90.332,3.418,0.000
1742813844.672,-42.480,-28.809,-91.797,7.812,0.000
1742813844.676,-33.691,-32.227,-101.074,-5.859,0.000
1742813844.680,-33.203,-31.738,-103.516,-7.812,0.000
1742813844.684,-42.969,-28.320,-100.098,-2.930,0.000
1742813844.688,-47.852,-29.297,-100.098,-0.488,0.000
1742813844.691,-42.480,-34.180,-119.629,-7.324,0.000
1742813844.695,-35.645,-36.133,-134.277,-6.836,0.000
1742813844.699,-37.109,-28.320,-129.883,-8.301,0.000
1742813844.703,-39.062,-24.414,-128.906,-16.602,0.000
1742813844.707,-44.922,-27.832,-134.766,-8.789,0.000
1742813844.711,-33.691,-30.273,-140.137,-2.441,0.000
1742813844.715,-22.461,-28.809,-137.695,0.488,0.000
1742813844.719,-24.414,-28.809,-120.117,-3.418,0.000
